%OpenBCI Raw EEG Data
%
%Sample Rate = 250.0 Hz
%First Column = SampleIndex
%Other Columns = EEG data in microvolts followed by Accel Data (in G) interleaved with Aux Data
219, -187500,02, -15967,33, -187500,02, -187500,02, -187500,02, -187500,02, -187500,02, -187500,02, 0,00, 0,00, 0,00, 0,00, 0,00, 0,00, 0,00, 0,00, -0,02, 0,01, 1,02
220, -187500,02, -16473,23, -187500,02, -187500,02, -187500,02, -187500,02, -187500,02, -187500,02, 0,00, 0,00, 0,00, 0,00, 0,00, 0,00, 0,00, 0,00, -0,02, 0,01, 1,02
221, -187500,02, -16581,73, -187500,02, -187500,02, -187500,02, -187500,02, -187500,02, -187500,02, 0,00, 0,00, 0,00, 0,00, 0,00, 0,00, 0,00, 0,00, -0,02, 0,01, 1,02
222, -187500,02, -16142,29, -187500,02, -187500,02, -187500,02, -187500,02, -187500,02, -187500,02, 0,00, 0,00, 0,00, 0,00, 0,00, 0,00, 0,00, 0,00, -0,02, 0,01, 1,02
223, -187500,02, -15800,87, -187500,02, -187500,02, -187500,02, -187500,02, -187500,02, -187500,02, 0,00, 0,00, 0,00, 0,00, 0,00, 0,00, 0,00, 0,00, -0,02, 0,00, 1,02
224, -187500,02, -16012,30, -187500,02, -187500,02, -187500,02, -187500,02, -187500,02, -187500,02, 0,00, 0,00, 0,00, 0,00, 0,00, 0,00, 0,00, 0,00, -0,02, 0,00, 1,02
225, -187500,02, -16502,31, -187500,02, -187500,02, -187500,02, -187500,02, -187500,02, -187500,02, 0,00, 0,00, 0,00, 0,00, 0,00, 0,00, 0,00, 0,00, -0,02, 0,00, 1,02
226, -187500,02, -16674,42, -187500,02, -187500,02, -187500,02, -187500,02, -187500,02, -187500,02, 0,00, 0,00, 0,00, 0,00, 0,00, 0,00, 0,00, 0,00, -0,02, 0,00, 1,02
227, -187500,02, -16243,33, -187500,02, -187500,02, -187500,02, -187500,02, -187500,02, -187500,02, 0,00, 0,00, 0,00, 0,00, 0,00, 0,00, 0,00, 0,00, -0,02, 0,00, 1,02
228, -187500,02, -15837,89, -187500,02, -187500,02, -187500,02, -187500,02, -187500,02, -187500,02, 0,00, 0,00, 0,00, 0,00, 0,00, 0,00, 0,00, 0,00, -0,02, 0,00, 1,01
229, -187500,02, -16029,58, -187500,02, -187500,02, -187500,02, -187500,02, -187500,02, -187500,02, 0,00, 0,00, 0,00, 0,00, 0,00, 0,00, 0,00, 0,00, -0,02, 0,00, 1,01
230, -187500,02, -16609,74, -187500,02, -187500,02, -187500,02, -187500,02, -187500,02, -187500,02, 0,00, 0,00, 0,00, 0,00, 0,00, 0,00, 0,00, 0,00, -0,02, 0,00, 1,01
231, -187500,02, -16746,71, -187500,02, -187500,02, -187500,02, -187500,02, -187500,02, -187500,02, 0,00, 0,00, 0,00, 0,00, 0,00, 0,00, 0,00, 0,00, -0,02, 0,00, 1,01
232, -187500,02, -16321,33, -187500,02, -187500,02, -187500,02, -187500,02, -187500,02, -187500,02, 0,00, 0,00, 0,00, 0,00, 0,00, 0,00, 0,00, 0,00, -0,02, 0,00, 1,01
233, -187500,02, -15910,37, -187500,02, -187500,02, -187500,02, -187500,02, -187500,02, -187500,02, 0,00, 0,00, 0,00, 0,00, 0,00, 0,00, 0,00, 0,00, -0,02, 0,01, 1,01
234, -187500,02, -16119,85, -187500,02, -187500,02, -187500,02, -187500,02, -187500,02, -187500,02, 0,00, 0,00, 0,00, 0,00, 0,00, 0,00, 0,00, 0,00, -0,02, 0,01, 1,01
235, -187500,02, -16662,22, -187500,02, -187500,02, -187500,02, -187500,02, -187500,02, -187500,02, 0,00, 0,00, 0,00, 0,00, 0,00, 0,00, 0,00, 0,00, -0,02, 0,01, 1,01
236, -187500,02, -16766,80, -187500,02, -187500,02, -187500,02, -187500,02, -187500,02, -187500,02, 0,00, 0,00, 0,00, 0,00, 0,00, 0,00, 0,00, 0,00, -0,02, 0,01, 1,01
237, -187500,02, -16344,40, -187500,02, -187500,02, -187500,02, -187500,02, -187500,02, -187500,02, 0,00, 0,00, 0,00, 0,00, 0,00, 0,00, 0,00, 0,00, -0,02, 0,01, 1,01
238, -187500,02, -15985,41, -187500,02, -187500,02, -187500,02, -187500,02, -187500,02, -187500,02, 0,00, 0,00, 0,00, 0,00, 0,00, 0,00, 0,00, 0,00, -0,02, 0,00, 1,01
239, -187500,02, -16207,94, -187500,02, -187500,02, -187500,02, -187500,02, -187500,02, -187500,02, 0,00, 0,00, 0,00, 0,00, 0,00, 0,00, 0,00, 0,00, -0,02, 0,00, 1,01
240, -187500,02, -16754,08, -187500,02, -187500,02, -187500,02, -187500,02, -187500,02, -187500,02, 0,00, 0,00, 0,00, 0,00, 0,00, 0,00, 0,00, 0,00, -0,02, 0,00, 1,01
241, -187500,02, -16930,17, -187500,02, -187500,02, -187500,02, -187500,02, -187500,02, -187500,02, 0,00, 0,00, 0,00, 0,00, 0,00, 0,00, 0,00, 0,00, -0,02, 0,00, 1,01
242, -187500,02, -16486,40, -187500,02, -187500,02, -187500,02, -187500,02, -187500,02, -187500,02, 0,00, 0,00, 0,00, 0,00, 0,00, 0,00, 0,00, 0,00, -0,02, 0,00, 1,01
243, -187500,02, -16085,77, -187500,02, -187500,02, -187500,02, -187500,02, -187500,02, -187500,02, 0,00, 0,00, 0,00, 0,00, 0,00, 0,00, 0,00, 0,00, -0,02, 0,00, 1,01
244, -187500,02, -16318,54, -187500,02, -187500,02, -187500,02, -187500,02, -187500,02, -187500,02, 0,00, 0,00, 0,00, 0,00, 0,00, 0,00, 0,00, 0,00, -0,02, 0,00, 1,01
245, -187500,02, -16802,48, -187500,02, -187500,02, -187500,02, -187500,02, -187500,02, -187500,02, 0,00, 0,00, 0,00, 0,00, 0,00, 0,00, 0,00, 0,00, -0,02, 0,00, 1,01
246, -187500,02, -16981,38, -187500,02, -187500,02, -187500,02, -187500,02, -187500,02, -187500,02, 0,00, 0,00, 0,00, 0,00, 0,00, 0,00, 0,00, 0,00, -0,02, 0,00, 1,01
247, -187500,02, -16564,05, -187500,02, -187500,02, -187500,02, -187500,02, -187500,02, -187500,02, 0,00, 0,00, 0,00, 0,00, 0,00, 0,00, 0,00, 0,00, -0,02, 0,00, 1,01
248, -187500,02, -16129,58, -187500,02, -187500,02, -187500,02, -187500,02, -187500,02, -187500,02, 0,00, 0,00, 0,00, 0,00, 0,00, 0,00, 0,00, 0,00, -0,01, 0,00, 1,01
249, -187500,02, -16414,94, -187500,02, -187500,02, -187500,02, -187500,02, -187500,02, -187500,02, 0,00, 0,00, 0,00, 0,00, 0,00, 0,00, 0,00, 0,00, -0,01, 0,00, 1,01
250, -187500,02, -16961,44, -187500,02, -187500,02, -187500,02, -187500,02, -187500,02, -187500,02, 0,00, 0,00, 0,00, 0,00, 0,00, 0,00, 0,00, 0,00, -0,01, 0,00, 1,01
251, -187500,02, -17079,84, -187500,02, -187500,02, -187500,02, -187500,02, -187500,02, -187500,02, 0,00, 0,00, 0,00, 0,00, 0,00, 0,00, 0,00, 0,00, -0,01, 0,00, 1,01
252, -187500,02, -16680,44, -187500,02, -187500,02, -187500,02, -187500,02, -187500,02, -187500,02, 0,00, 0,00, 0,00, 0,00, 0,00, 0,00, 0,00, 0,00, -0,01, 0,00, 1,01
253, -187500,02, -16322,52, -187500,02, -187500,02, -187500,02, -187500,02, -187500,02, -187500,02, 0,00, 0,00, 0,00, 0,00, 0,00, 0,00, 0,00, 0,00, -0,02, 0,00, 1,01
254, -187500,02, -16505,58, -187500,02, -187500,02, -187500,02, -187500,02, -187500,02, -187500,02, 0,00, 0,00, 0,00, 0,00, 0,00, 0,00, 0,00, 0,00, -0,02, 0,00, 1,01
255, -187500,02, -17044,39, -187500,02, -187500,02, -187500,02, -187500,02, -187500,02, -187500,02, 0,00, 0,00, 0,00, 0,00, 0,00, 0,00, 0,00, 0,00, -0,02, 0,00, 1,01
0, -187500,02, -17182,50, -187500,02, -187500,02, -187500,02, -187500,02, -187500,02, -187500,02, 0,00, 0,00, 0,00, 0,00, 0,00, 0,00, 0,00, 0,00, -0,02, 0,00, 1,01
1, -187500,02, -16763,38, -187500,02, -187500,02, -187500,02, -187500,02, -187500,02, -187500,02, 0,00, 0,00, 0,00, 0,00, 0,00, 0,00, 0,00, 0,00, -0,02, 0,00, 1,01
2, -187500,02, -16396,10, -187500,02, -187500,02, -187500,02, -187500,02, -187500,02, -187500,02, 0,00, 0,00, 0,00, 0,00, 0,00, 0,00, 0,00, 0,00, -0,01, 0,00, 1,01
3, -187500,02, -16583,92, -187500,02, -187500,02, -187500,02, -187500,02, -187500,02, -187500,02, 0,00, 0,00, 0,00, 0,00, 0,00, 0,00, 0,00, 0,00, -0,01, 0,00, 1,01
4, -187500,02, -17121,32, -187500,02, -187500,02, -187500,02, -187500,02, -187500,02, -187500,02, 0,00, 0,00, 0,00, 0,00, 0,00, 0,00, 0,00, 0,00, -0,01, 0,00, 1,01
5, -187500,02, -17261,04, -187500,02, -187500,02, -187500,02, -187500,02, -187500,02, -187500,02, 0,00, 0,00, 0,00, 0,00, 0,00, 0,00, 0,00, 0,00, -0,01, 0,00, 1,01
6, -187500,02, -16919,46, -187500,02, -187500,02, -187500,02, -187500,02, -187500,02, -187500,02, 0,00, 0,00, 0,00, 0,00, 0,00, 0,00, 0,00, 0,00, -0,01, 0,00, 1,01
7, -187500,02, -16504,93, -187500,02, -187500,02, -187500,02, -187500,02, -187500,02, -187500,02, 0,00, 0,00, 0,00, 0,00, 0,00, 0,00, 0,00, 0,00, -0,02, 0,01, 1,01
8, -187500,02, -16656,99, -187500,02, -187500,02, -187500,02, -187500,02, -187500,02, -187500,02, 0,00, 0,00, 0,00, 0,00, 0,00, 0,00, 0,00, 0,00, -0,02, 0,01, 1,01
9, -187500,02, -17257,71, -187500,02, -187500,02, -187500,02, -187500,02, -187500,02, -187500,02, 0,00, 0,00, 0,00, 0,00, 0,00, 0,00, 0,00, 0,00, -0,02, 0,01, 1,01
10, -187500,02, -17465,23, -187500,02, -187500,02, -187500,02, -187500,02, -187500,02, -187500,02, 0,00, 0,00, 0,00, 0,00, 0,00, 0,00, 0,00, 0,00, -0,02, 0,01, 1,01
11, -187500,02, -17059,19, -187500,02, -187500,02, -187500,02, -187500,02, -187500,02, -187500,02, 0,00, 0,00, 0,00, 0,00, 0,00, 0,00, 0,00, 0,00, -0,02, 0,01, 1,01
12, -187500,02, -16627,78, -187500,02, -187500,02, -187500,02, -187500,02, -187500,02, -187500,02, 0,00, 0,00, 0,00, 0,00, 0,00, 0,00, 0,00, 0,00, -0,02, 0,01, 1,01
13, -187500,02, -16847,43, -187500,02, -187500,02, -187500,02, -187500,02, -187500,02, -187500,02, 0,00, 0,00, 0,00, 0,00, 0,00, 0,00, 0,00, 0,00, -0,02, 0,01, 1,01
14, -187500,02, -17400,18, -187500,02, -187500,02, -187500,02, -187500,02, -187500,02, -187500,02, 0,00, 0,00, 0,00, 0,00, 0,00, 0,00, 0,00, 0,00, -0,02, 0,01, 1,01
15, -187500,02, -17554,66, -187500,02, -187500,02, -187500,02, -187500,02, -187500,02, -187500,02, 0,00, 0,00, 0,00, 0,00, 0,00, 0,00, 0,00, 0,00, -0,02, 0,01, 1,01
16, -187500,02, -17132,07, -187500,02, -187500,02, -187500,02, -187500,02, -187500,02, -187500,02, 0,00, 0,00, 0,00, 0,00, 0,00, 0,00, 0,00, 0,00, -0,02, 0,01, 1,01
17, -187500,02, -16739,80, -187500,02, -187500,02, -187500,02, -187500,02, -187500,02, -187500,02, 0,00, 0,00, 0,00, 0,00, 0,00, 0,00, 0,00, 0,00, -0,02, 0,00, 1,01
18, -187500,02, -16953,51, -187500,02, -187500,02, -187500,02, -187500,02, -187500,02, -187500,02, 0,00, 0,00, 0,00, 0,00, 0,00, 0,00, 0,00, 0,00, -0,02, 0,00, 1,01
19, -187500,02, -17483,18, -187500,02, -187500,02, -187500,02, -187500,02, -187500,02, -187500,02, 0,00, 0,00, 0,00, 0,00, 0,00, 0,00, 0,00, 0,00, -0,02, 0,00, 1,01
20, -187500,02, -17653,27, -187500,02, -187500,02, -187500,02, -187500,02, -187500,02, -187500,02, 0,00, 0,00, 0,00, 0,00, 0,00, 0,00, 0,00, 0,00, -0,02, 0,00, 1,01
21, -187500,02, -17268,78, -187500,02, -187500,02, -187500,02, -187500,02, -187500,02, -187500,02, 0,00, 0,00, 0,00, 0,00, 0,00, 0,00, 0,00, 0,00, -0,02, 0,00, 1,01
22, -187500,02, -16826,35, -187500,02, -187500,02, -187500,02, -187500,02, -187500,02, -187500,02, 0,00, 0,00, 0,00, 0,00, 0,00, 0,00, 0,00, 0,00, -0,02, -0,00, 1,02
23, -187500,02, -17031,54, -187500,02, -187500,02, -187500,02, -187500,02, -187500,02, -187500,02, 0,00, 0,00, 0,00, 0,00, 0,00, 0,00, 0,00, 0,00, -0,02, -0,00, 1,02
24, -187500,02, -17554,30, -187500,02, -187500,02, -187500,02, -187500,02, -187500,02, -187500,02, 0,00, 0,00, 0,00, 0,00, 0,00, 0,00, 0,00, 0,00, -0,02, -0,00, 1,02
25, -187500,02, -17727,19, -187500,02, -187500,02, -187500,02, -187500,02, -187500,02, -187500,02, 0,00, 0,00, 0,00, 0,00, 0,00, 0,00, 0,00, 0,00, -0,02, -0,00, 1,02
26, -187500,02, -17406,85, -187500,02, -187500,02, -187500,02, -187500,02, -187500,02, -187500,02, 0,00, 0,00, 0,00, 0,00, 0,00, 0,00, 0,00, 0,00, -0,02, -0,00, 1,02
27, -187500,02, -17036,83, -187500,02, -187500,02, -187500,02, -187500,02, -187500,02, -187500,02, 0,00, 0,00, 0,00, 0,00, 0,00, 0,00, 0,00, 0,00, -0,02, 0,00, 1,01
28, -187500,02, -17186,21, -187500,02, -187500,02, -187500,02, -187500,02, -187500,02, -187500,02, 0,00, 0,00, 0,00, 0,00, 0,00, 0,00, 0,00, 0,00, -0,02, 0,00, 1,01
29, -187500,02, -17715,05, -187500,02, -187500,02, -187500,02, -187500,02, -187500,02, -187500,02, 0,00, 0,00, 0,00, 0,00, 0,00, 0,00, 0,00, 0,00, -0,02, 0,00, 1,01
30, -187500,02, -17896,62, -187500,02, -187500,02, -187500,02, -187500,02, -187500,02, -187500,02, 0,00, 0,00, 0,00, 0,00, 0,00, 0,00, 0,00, 0,00, -0,02, 0,00, 1,01
31, -187500,02, -17514,92, -187500,02, -187500,02, -187500,02, -187500,02, -187500,02, -187500,02, 0,00, 0,00, 0,00, 0,00, 0,00, 0,00, 0,00, 0,00, -0,02, 0,00, 1,01
32, -187500,02, -17117,70, -187500,02, -187500,02, -187500,02, -187500,02, -187500,02, -187500,02, 0,00, 0,00, 0,00, 0,00, 0,00, 0,00, 0,00, 0,00, -0,02, 0,00, 1,01
33, -187500,02, -17244,57, -187500,02, -187500,02, -187500,02, -187500,02, -187500,02, -187500,02, 0,00, 0,00, 0,00, 0,00, 0,00, 0,00, 0,00, 0,00, -0,02, 0,00, 1,01
34, -187500,02, -17754,64, -187500,02, -187500,02, -187500,02, -187500,02, -187500,02, -187500,02, 0,00, 0,00, 0,00, 0,00, 0,00, 0,00, 0,00, 0,00, -0,02, 0,00, 1,01
35, -187500,02, -17961,55, -187500,02, -187500,02, -187500,02, -187500,02, -187500,02, -187500,02, 0,00, 0,00, 0,00, 0,00, 0,00, 0,00, 0,00, 0,00, -0,02, 0,00, 1,01
36, -187500,02, -17644,78, -187500,02, -187500,02, -187500,02, -187500,02, -187500,02, -187500,02, 0,00, 0,00, 0,00, 0,00, 0,00, 0,00, 0,00, 0,00, -0,02, 0,00, 1,01
37, -187500,02, -17204,00, -187500,02, -187500,02, -187500,02, -187500,02, -187500,02, -187500,02, 0,00, 0,00, 0,00, 0,00, 0,00, 0,00, 0,00, 0,00, -0,01, -0,00, 1,02
38, -187500,02, -17332,59, -187500,02, -187500,02, -187500,02, -187500,02, -187500,02, -187500,02, 0,00, 0,00, 0,00, 0,00, 0,00, 0,00, 0,00, 0,00, -0,01, -0,00, 1,02
39, -187500,02, -17882,91, -187500,02, -187500,02, -187500,02, -187500,02, -187500,02, -187500,02, 0,00, 0,00, 0,00, 0,00, 0,00, 0,00, 0,00, 0,00, -0,01, -0,00, 1,02
40, -187500,02, -18135,51, -187500,02, -187500,02, -187500,02, -187500,02, -187500,02, -187500,02, 0,00, 0,00, 0,00, 0,00, 0,00, 0,00, 0,00, 0,00, -0,01, -0,00, 1,02
41, -187500,02, -17731,17, -187500,02, -187500,02, -187500,02, -187500,02, -187500,02, -187500,02, 0,00, 0,00, 0,00, 0,00, 0,00, 0,00, 0,00, 0,00, -0,01, -0,00, 1,02
42, -187500,02, -17325,93, -187500,02, -187500,02, -187500,02, -187500,02, -187500,02, -187500,02, 0,00, 0,00, 0,00, 0,00, 0,00, 0,00, 0,00, 0,00, -0,01, -0,00, 1,02
43, -187500,02, -17489,12, -187500,02, -187500,02, -187500,02, -187500,02, -187500,02, -187500,02, 0,00, 0,00, 0,00, 0,00, 0,00, 0,00, 0,00, 0,00, -0,01, -0,00, 1,01
44, -187500,02, -18009,16, -187500,02, -187500,02, -187500,02, -187500,02, -187500,02, -187500,02, 0,00, 0,00, 0,00, 0,00, 0,00, 0,00, 0,00, 0,00, -0,01, -0,00, 1,01
45, -187500,02, -18189,00, -187500,02, -187500,02, -187500,02, -187500,02, -187500,02, -187500,02, 0,00, 0,00, 0,00, 0,00, 0,00, 0,00, 0,00, 0,00, -0,01, -0,00, 1,01
46, -187500,02, -17859,45, -187500,02, -187500,02, -187500,02, -187500,02, -187500,02, -187500,02, 0,00, 0,00, 0,00, 0,00, 0,00, 0,00, 0,00, 0,00, -0,01, -0,00, 1,01
47, -187500,02, -17428,57, -187500,02, -187500,02, -187500,02, -187500,02, -187500,02, -187500,02, 0,00, 0,00, 0,00, 0,00, 0,00, 0,00, 0,00, 0,00, -0,01, -0,00, 1,01
48, -187500,02, -17539,55, -187500,02, -187500,02, -187500,02, -187500,02, -187500,02, -187500,02, 0,00, 0,00, 0,00, 0,00, 0,00, 0,00, 0,00, 0,00, -0,02, 0,00, 1,01
49, -187500,02, -18067,03, -187500,02, -187500,02, -187500,02, -187500,02, -187500,02, -187500,02, 0,00, 0,00, 0,00, 0,00, 0,00, 0,00, 0,00, 0,00, -0,02, 0,00, 1,01
50, -187500,02, -18247,23, -187500,02, -187500,02, -187500,02, -187500,02, -187500,02, -187500,02, 0,00, 0,00, 0,00, 0,00, 0,00, 0,00, 0,00, 0,00, -0,02, 0,00, 1,01
51, -187500,02, -17946,57, -187500,02, -187500,02, -187500,02, -187500,02, -187500,02, -187500,02, 0,00, 0,00, 0,00, 0,00, 0,00, 0,00, 0,00, 0,00, -0,02, 0,00, 1,01
52, -187500,02, -17502,35, -187500,02, -187500,02, -187500,02, -187500,02, -187500,02, -187500,02, 0,00, 0,00, 0,00, 0,00, 0,00, 0,00, 0,00, 0,00, -0,02, 0,00, 1,01
53, -187500,02, -17598,02, -187500,02, -187500,02, -187500,02, -187500,02, -187500,02, -187500,02, 0,00, 0,00, 0,00, 0,00, 0,00, 0,00, 0,00, 0,00, -0,02, 0,00, 1,01
54, -187500,02, -18183,21, -187500,02, -187500,02, -187500,02, -187500,02, -187500,02, -187500,02, 0,00, 0,00, 0,00, 0,00, 0,00, 0,00, 0,00, 0,00, -0,02, 0,00, 1,01
55, -187500,02, -18413,57, -187500,02, -187500,02, -187500,02, -187500,02, -187500,02, -187500,02, 0,00, 0,00, 0,00, 0,00, 0,00, 0,00, 0,00, 0,00, -0,02, 0,00, 1,01
56, -187500,02, -18025,97, -187500,02, -187500,02, -187500,02, -187500,02, -187500,02, -187500,02, 0,00, 0,00, 0,00, 0,00, 0,00, 0,00, 0,00, 0,00, -0,02, 0,00, 1,01
57, -187500,02, -17580,34, -187500,02, -187500,02, -187500,02, -187500,02, -187500,02, -187500,02, 0,00, 0,00, 0,00, 0,00, 0,00, 0,00, 0,00, 0,00, -0,02, 0,00, 1,01
58, -187500,02, -17726,70, -187500,02, -187500,02, -187500,02, -187500,02, -187500,02, -187500,02, 0,00, 0,00, 0,00, 0,00, 0,00, 0,00, 0,00, 0,00, -0,02, 0,00, 1,01
59, -187500,02, -18297,18, -187500,02, -187500,02, -187500,02, -187500,02, -187500,02, -187500,02, 0,00, 0,00, 0,00, 0,00, 0,00, 0,00, 0,00, 0,00, -0,02, 0,00, 1,01
60, -187500,02, -18506,53, -187500,02, -187500,02, -187500,02, -187500,02, -187500,02, -187500,02, 0,00, 0,00, 0,00, 0,00, 0,00, 0,00, 0,00, 0,00, -0,02, 0,00, 1,01
61, -187500,02, -18135,36, -187500,02, -187500,02, -187500,02, -187500,02, -187500,02, -187500,02, 0,00, 0,00, 0,00, 0,00, 0,00, 0,00, 0,00, 0,00, -0,02, 0,00, 1,01
62, -187500,02, -17707,43, -187500,02, -187500,02, -187500,02, -187500,02, -187500,02, -187500,02, 0,00, 0,00, 0,00, 0,00, 0,00, 0,00, 0,00, 0,00, -0,02, 0,00, 1,01
63, -187500,02, -17796,26, -187500,02, -187500,02, -187500,02, -187500,02, -187500,02, -187500,02, 0,00, 0,00, 0,00, 0,00, 0,00, 0,00, 0,00, 0,00, -0,02, 0,00, 1,02
64, -187500,02, -18332,47, -187500,02, -187500,02, -187500,02, -187500,02, -187500,02, -187500,02, 0,00, 0,00, 0,00, 0,00, 0,00, 0,00, 0,00, 0,00, -0,02, 0,00, 1,02
65, -187500,02, -18550,03, -187500,02, -187500,02, -187500,02, -187500,02, -187500,02, -187500,02, 0,00, 0,00, 0,00, 0,00, 0,00, 0,00, 0,00, 0,00, -0,02, 0,00, 1,02
66, -187500,02, -18232,41, -187500,02, -187500,02, -187500,02, -187500,02, -187500,02, -187500,02, 0,00, 0,00, 0,00, 0,00, 0,00, 0,00, 0,00, 0,00, -0,02, 0,00, 1,02
67, -187500,02, -17832,24, -187500,02, -187500,02, -187500,02, -187500,02, -187500,02, -187500,02, 0,00, 0,00, 0,00, 0,00, 0,00, 0,00, 0,00, 0,00, -0,02, 0,00, 1,02
68, -187500,02, -17910,99, -187500,02, -187500,02, -187500,02, -187500,02, -187500,02, -187500,02, 0,00, 0,00, 0,00, 0,00, 0,00, 0,00, 0,00, 0,00, -0,02, 0,00, 1,02
69, -187500,02, -18436,70, -187500,02, -187500,02, -187500,02, -187500,02, -187500,02, -187500,02, 0,00, 0,00, 0,00, 0,00, 0,00, 0,00, 0,00, 0,00, -0,02, 0,00, 1,02
70, -187500,02, -18666,75, -187500,02, -187500,02, -187500,02, -187500,02, -187500,02, -187500,02, 0,00, 0,00, 0,00, 0,00, 0,00, 0,00, 0,00, 0,00, -0,02, 0,00, 1,02
71, -187500,02, -18319,76, -187500,02, -187500,02, -187500,02, -187500,02, -187500,02, -187500,02, 0,00, 0,00, 0,00, 0,00, 0,00, 0,00, 0,00, 0,00, -0,02, 0,00, 1,02
72, -187500,02, -17902,09, -187500,02, -187500,02, -187500,02, -187500,02, -187500,02, -187500,02, 0,00, 0,00, 0,00, 0,00, 0,00, 0,00, 0,00, 0,00, -0,02, 0,00, 1,02
73, -187500,02, -17976,41, -187500,02, -187500,02, -187500,02, -187500,02, -187500,02, -187500,02, 0,00, 0,00, 0,00, 0,00, 0,00, 0,00, 0,00, 0,00, -0,02, 0,00, 1,03
74, -187500,02, -18498,01, -187500,02, -187500,02, -187500,02, -187500,02, -187500,02, -187500,02, 0,00, 0,00, 0,00, 0,00, 0,00, 0,00, 0,00, 0,00, -0,02, 0,00, 1,03
75, -187500,02, -18796,14, -187500,02, -187500,02, -187500,02, -187500,02, -187500,02, -187500,02, 0,00, 0,00, 0,00, 0,00, 0,00, 0,00, 0,00, 0,00, -0,02, 0,00, 1,03
76, -187500,02, -18464,13, -187500,02, -187500,02, -187500,02, -187500,02, -187500,02, -187500,02, 0,00, 0,00, 0,00, 0,00, 0,00, 0,00, 0,00, 0,00, -0,02, 0,00, 1,03
77, -187500,02, -18010,95, -187500,02, -187500,02, -187500,02, -187500,02, -187500,02, -187500,02, 0,00, 0,00, 0,00, 0,00, 0,00, 0,00, 0,00, 0,00, -0,02, 0,00, 1,03
78, -187500,02, -18103,50, -187500,02, -187500,02, -187500,02, -187500,02, -187500,02, -187500,02, 0,00, 0,00, 0,00, 0,00, 0,00, 0,00, 0,00, 0,00, -0,02, 0,00, 1,02
79, -187500,02, -18573,05, -187500,02, -187500,02, -187500,02, -187500,02, -187500,02, -187500,02, 0,00, 0,00, 0,00, 0,00, 0,00, 0,00, 0,00, 0,00, -0,02, 0,00, 1,02
80, -187500,02, -18913,73, -187500,02, -187500,02, -187500,02, -187500,02, -187500,02, -187500,02, 0,00, 0,00, 0,00, 0,00, 0,00, 0,00, 0,00, 0,00, -0,02, 0,00, 1,02
81, -187500,02, -18563,75, -187500,02, -187500,02, -187500,02, -187500,02, -187500,02, -187500,02, 0,00, 0,00, 0,00, 0,00, 0,00, 0,00, 0,00, 0,00, -0,02, 0,00, 1,02
82, -187500,02, -18107,97, -187500,02, -187500,02, -187500,02, -187500,02, -187500,02, -187500,02, 0,00, 0,00, 0,00, 0,00, 0,00, 0,00, 0,00, 0,00, -0,02, 0,00, 1,02
83, -187500,02, -18211,73, -187500,02, -187500,02, -187500,02, -187500,02, -187500,02, -187500,02, 0,00, 0,00, 0,00, 0,00, 0,00, 0,00, 0,00, 0,00, -0,02, 0,00, 1,02
84, -187500,02, -18746,23, -187500,02, -187500,02, -187500,02, -187500,02, -187500,02, -187500,02, 0,00, 0,00, 0,00, 0,00, 0,00, 0,00, 0,00, 0,00, -0,02, 0,00, 1,02
85, -187500,02, -18993,69, -187500,02, -187500,02, -187500,02, -187500,02, -187500,02, -187500,02, 0,00, 0,00, 0,00, 0,00, 0,00, 0,00, 0,00, 0,00, -0,02, 0,00, 1,02
86, -187500,02, -18637,09, -187500,02, -187500,02, -187500,02, -187500,02, -187500,02, -187500,02, 0,00, 0,00, 0,00, 0,00, 0,00, 0,00, 0,00, 0,00, -0,02, 0,00, 1,02
87, -187500,02, -18211,80, -187500,02, -187500,02, -187500,02, -187500,02, -187500,02, -187500,02, 0,00, 0,00, 0,00, 0,00, 0,00, 0,00, 0,00, 0,00, -0,02, 0,00, 1,02
88, -187500,02, -18278,81, -187500,02, -187500,02, -187500,02, -187500,02, -187500,02, -187500,02, 0,00, 0,00, 0,00, 0,00, 0,00, 0,00, 0,00, 0,00, -0,02, 0,01, 1,02
89, -187500,02, -18815,79, -187500,02, -187500,02, -187500,02, -187500,02, -187500,02, -187500,02, 0,00, 0,00, 0,00, 0,00, 0,00, 0,00, 0,00, 0,00, -0,02, 0,01, 1,02
90, -187500,02, -19097,26, -187500,02, -187500,02, -187500,02, -187500,02, -187500,02, -187500,02, 0,00, 0,00, 0,00, 0,00, 0,00, 0,00, 0,00, 0,00, -0,02, 0,01, 1,02
91, -187500,02, -18744,66, -187500,02, -187500,02, -187500,02, -187500,02, -187500,02, -187500,02, 0,00, 0,00, 0,00, 0,00, 0,00, 0,00, 0,00, 0,00, -0,02, 0,01, 1,02
92, -187500,02, -18258,27, -187500,02, -187500,02, -187500,02, -187500,02, -187500,02, -187500,02, 0,00, 0,00, 0,00, 0,00, 0,00, 0,00, 0,00, 0,00, -0,02, 0,01, 1,02
93, -187500,02, -18369,31, -187500,02, -187500,02, -187500,02, -187500,02, -187500,02, -187500,02, 0,00, 0,00, 0,00, 0,00, 0,00, 0,00, 0,00, 0,00, -0,02, 0,00, 1,02
94, -187500,02, -18916,66, -187500,02, -187500,02, -187500,02, -187500,02, -187500,02, -187500,02, 0,00, 0,00, 0,00, 0,00, 0,00, 0,00, 0,00, 0,00, -0,02, 0,00, 1,02
95, -187500,02, -19185,64, -187500,02, -187500,02, -187500,02, -187500,02, -187500,02, -187500,02, 0,00, 0,00, 0,00, 0,00, 0,00, 0,00, 0,00, 0,00, -0,02, 0,00, 1,02
96, -187500,02, -18825,85, -187500,02, -187500,02, -187500,02, -187500,02, -187500,02, -187500,02, 0,00, 0,00, 0,00, 0,00, 0,00, 0,00, 0,00, 0,00, -0,02, 0,00, 1,02
97, -187500,02, -18377,29, -187500,02, -187500,02, -187500,02, -187500,02, -187500,02, -187500,02, 0,00, 0,00, 0,00, 0,00, 0,00, 0,00, 0,00, 0,00, -0,02, 0,00, 1,02
98, -187500,02, -18442,33, -187500,02, -187500,02, -187500,02, -187500,02, -187500,02, -187500,02, 0,00, 0,00, 0,00, 0,00, 0,00, 0,00, 0,00, 0,00, -0,02, 0,00, 1,01
99, -187500,02, -18956,56, -187500,02, -187500,02, -187500,02, -187500,02, -187500,02, -187500,02, 0,00, 0,00, 0,00, 0,00, 0,00, 0,00, 0,00, 0,00, -0,02, 0,00, 1,01
100, -187500,02, -19266,89, -187500,02, -187500,02, -187500,02, -187500,02, -187500,02, -187500,02, 0,00, 0,00, 0,00, 0,00, 0,00, 0,00, 0,00, 0,00, -0,02, 0,00, 1,01
101, -187500,02, -18921,22, -187500,02, -187500,02, -187500,02, -187500,02, -187500,02, -187500,02, 0,00, 0,00, 0,00, 0,00, 0,00, 0,00, 0,00, 0,00, -0,02, 0,00, 1,01
102, -187500,02, -18490,79, -187500,02, -187500,02, -187500,02, -187500,02, -187500,02, -187500,02, 0,00, 0,00, 0,00, 0,00, 0,00, 0,00, 0,00, 0,00, -0,02, 0,00, 1,01
103, -187500,02, -18571,82, -187500,02, -187500,02, -187500,02, -187500,02, -187500,02, -187500,02, 0,00, 0,00, 0,00, 0,00, 0,00, 0,00, 0,00, 0,00, -0,02, 0,01, 1,02
104, -187500,02, -19073,66, -187500,02, -187500,02, -187500,02, -187500,02, -187500,02, -187500,02, 0,00, 0,00, 0,00, 0,00, 0,00, 0,00, 0,00, 0,00, -0,02, 0,01, 1,02
105, -187500,02, -19328,42, -187500,02, -187500,02, -187500,02, -187500,02, -187500,02, -187500,02, 0,00, 0,00, 0,00, 0,00, 0,00, 0,00, 0,00, 0,00, -0,02, 0,01, 1,02
106, -187500,02, -19037,54, -187500,02, -187500,02, -187500,02, -187500,02, -187500,02, -187500,02, 0,00, 0,00, 0,00, 0,00, 0,00, 0,00, 0,00, 0,00, -0,02, 0,01, 1,02
107, -187500,02, -18582,28, -187500,02, -187500,02, -187500,02, -187500,02, -187500,02, -187500,02, 0,00, 0,00, 0,00, 0,00, 0,00, 0,00, 0,00, 0,00, -0,02, 0,01, 1,02
108, -187500,02, -18657,09, -187500,02, -187500,02, -187500,02, -187500,02, -187500,02, -187500,02, 0,00, 0,00, 0,00, 0,00, 0,00, 0,00, 0,00, 0,00, -0,02, 0,01, 1,02
109, -187500,02, -19167,98, -187500,02, -187500,02, -187500,02, -187500,02, -187500,02, -187500,02, 0,00, 0,00, 0,00, 0,00, 0,00, 0,00, 0,00, 0,00, -0,02, 0,01, 1,02
110, -187500,02, -19442,35, -187500,02, -187500,02, -187500,02, -187500,02, -187500,02, -187500,02, 0,00, 0,00, 0,00, 0,00, 0,00, 0,00, 0,00, 0,00, -0,02, 0,01, 1,02
111, -187500,02, -19132,89, -187500,02, -187500,02, -187500,02, -187500,02, -187500,02, -187500,02, 0,00, 0,00, 0,00, 0,00, 0,00, 0,00, 0,00, 0,00, -0,02, 0,01, 1,02
112, -187500,02, -18652,71, -187500,02, -187500,02, -187500,02, -187500,02, -187500,02, -187500,02, 0,00, 0,00, 0,00, 0,00, 0,00, 0,00, 0,00, 0,00, -0,02, 0,01, 1,02
113, -187500,02, -18712,86, -187500,02, -187500,02, -187500,02, -187500,02, -187500,02, -187500,02, 0,00, 0,00, 0,00, 0,00, 0,00, 0,00, 0,00, 0,00, -0,02, 0,01, 1,01
114, -187500,02, -19215,19, -187500,02, -187500,02, -187500,02, -187500,02, -187500,02, -187500,02, 0,00, 0,00, 0,00, 0,00, 0,00, 0,00, 0,00, 0,00, -0,02, 0,01, 1,01
115, -187500,02, -19509,79, -187500,02, -187500,02, -187500,02, -187500,02, -187500,02, -187500,02, 0,00, 0,00, 0,00, 0,00, 0,00, 0,00, 0,00, 0,00, -0,02, 0,01, 1,01
116, -187500,02, -19186,36, -187500,02, -187500,02, -187500,02, -187500,02, -187500,02, -187500,02, 0,00, 0,00, 0,00, 0,00, 0,00, 0,00, 0,00, 0,00, -0,02, 0,01, 1,01
117, -187500,02, -18732,50, -187500,02, -187500,02, -187500,02, -187500,02, -187500,02, -187500,02, 0,00, 0,00, 0,00, 0,00, 0,00, 0,00, 0,00, 0,00, -0,02, 0,01, 1,01
118, -187500,02, -18797,91, -187500,02, -187500,02, -187500,02, -187500,02, -187500,02, -187500,02, 0,00, 0,00, 0,00, 0,00, 0,00, 0,00, 0,00, 0,00, -0,02, 0,00, 1,01
119, -187500,02, -19262,04, -187500,02, -187500,02, -187500,02, -187500,02, -187500,02, -187500,02, 0,00, 0,00, 0,00, 0,00, 0,00, 0,00, 0,00, 0,00, -0,02, 0,00, 1,01
120, -187500,02, -19598,70, -187500,02, -187500,02, -187500,02, -187500,02, -187500,02, -187500,02, 0,00, 0,00, 0,00, 0,00, 0,00, 0,00, 0,00, 0,00, -0,02, 0,00, 1,01
121, -187500,02, -19305,29, -187500,02, -187500,02, -187500,02, -187500,02, -187500,02, -187500,02, 0,00, 0,00, 0,00, 0,00, 0,00, 0,00, 0,00, 0,00, -0,02, 0,00, 1,01
122, -187500,02, -18841,87, -187500,02, -187500,02, -187500,02, -187500,02, -187500,02, -187500,02, 0,00, 0,00, 0,00, 0,00, 0,00, 0,00, 0,00, 0,00, -0,02, 0,00, 1,01
123, -187500,02, -18922,49, -187500,02, -187500,02, -187500,02, -187500,02, -187500,02, -187500,02, 0,00, 0,00, 0,00, 0,00, 0,00, 0,00, 0,00, 0,00, -0,01, 0,01, 1,01
124, -187500,02, -19416,54, -187500,02, -187500,02, -187500,02, -187500,02, -187500,02, -187500,02, 0,00, 0,00, 0,00, 0,00, 0,00, 0,00, 0,00, 0,00, -0,01, 0,01, 1,01
125, -187500,02, -19695,91, -187500,02, -187500,02, -187500,02, -187500,02, -187500,02, -187500,02, 0,00, 0,00, 0,00, 0,00, 0,00, 0,00, 0,00, 0,00, -0,01, 0,01, 1,01
126, -187500,02, -19398,90, -187500,02, -187500,02, -187500,02, -187500,02, -187500,02, -187500,02, 0,00, 0,00, 0,00, 0,00, 0,00, 0,00, 0,00, 0,00, -0,01, 0,01, 1,01
127, -187500,02, -18927,32, -187500,02, -187500,02, -187500,02, -187500,02, -187500,02, -187500,02, 0,00, 0,00, 0,00, 0,00, 0,00, 0,00, 0,00, 0,00, -0,01, 0,01, 1,01
128, -187500,02, -18946,54, -187500,02, -187500,02, -187500,02, -187500,02, -187500,02, -187500,02, 0,00, 0,00, 0,00, 0,00, 0,00, 0,00, 0,00, 0,00, -0,01, 0,01, 1,01
129, -187500,02, -19494,56, -187500,02, -187500,02, -187500,02, -187500,02, -187500,02, -187500,02, 0,00, 0,00, 0,00, 0,00, 0,00, 0,00, 0,00, 0,00, -0,01, 0,01, 1,01
130, -187500,02, -19822,17, -187500,02, -187500,02, -187500,02, -187500,02, -187500,02, -187500,02, 0,00, 0,00, 0,00, 0,00, 0,00, 0,00, 0,00, 0,00, -0,01, 0,01, 1,01
131, -187500,02, -19500,15, -187500,02, -187500,02, -187500,02, -187500,02, -187500,02, -187500,02, 0,00, 0,00, 0,00, 0,00, 0,00, 0,00, 0,00, 0,00, -0,01, 0,01, 1,01
132, -187500,02, -19029,65, -187500,02, -187500,02, -187500,02, -187500,02, -187500,02, -187500,02, 0,00, 0,00, 0,00, 0,00, 0,00, 0,00, 0,00, 0,00, -0,01, 0,01, 1,01
133, -187500,02, -19058,39, -187500,02, -187500,02, -187500,02, -187500,02, -187500,02, -187500,02, 0,00, 0,00, 0,00, 0,00, 0,00, 0,00, 0,00, 0,00, -0,02, 0,01, 1,01
134, -187500,02, -19568,91, -187500,02, -187500,02, -187500,02, -187500,02, -187500,02, -187500,02, 0,00, 0,00, 0,00, 0,00, 0,00, 0,00, 0,00, 0,00, -0,02, 0,01, 1,01
135, -187500,02, -19926,04, -187500,02, -187500,02, -187500,02, -187500,02, -187500,02, -187500,02, 0,00, 0,00, 0,00, 0,00, 0,00, 0,00, 0,00, 0,00, -0,02, 0,01, 1,01
136, -187500,02, -19612,31, -187500,02, -187500,02, -187500,02, -187500,02, -187500,02, -187500,02, 0,00, 0,00, 0,00, 0,00, 0,00, 0,00, 0,00, 0,00, -0,02, 0,01, 1,01
137, -187500,02, -19126,83, -187500,02, -187500,02, -187500,02, -187500,02, -187500,02, -187500,02, 0,00, 0,00, 0,00, 0,00, 0,00, 0,00, 0,00, 0,00, -0,02, 0,01, 1,01
138, -187500,02, -19168,63, -187500,02, -187500,02, -187500,02, -187500,02, -187500,02, -187500,02, 0,00, 0,00, 0,00, 0,00, 0,00, 0,00, 0,00, 0,00, -0,02, 0,01, 1,01
139, -187500,02, -19702,73, -187500,02, -187500,02, -187500,02, -187500,02, -187500,02, -187500,02, 0,00, 0,00, 0,00, 0,00, 0,00, 0,00, 0,00, 0,00, -0,02, 0,01, 1,01
140, -187500,02, -20016,52, -187500,02, -187500,02, -187500,02, -187500,02, -187500,02, -187500,02, 0,00, 0,00, 0,00, 0,00, 0,00, 0,00, 0,00, 0,00, -0,02, 0,01, 1,01
141, -187500,02, -19717,61, -187500,02, -187500,02, -187500,02, -187500,02, -187500,02, -187500,02, 0,00, 0,00, 0,00, 0,00, 0,00, 0,00, 0,00, 0,00, -0,02, 0,01, 1,01
142, -187500,02, -19247,87, -187500,02, -187500,02, -187500,02, -187500,02, -187500,02, -187500,02, 0,00, 0,00, 0,00, 0,00, 0,00, 0,00, 0,00, 0,00, -0,02, 0,01, 1,01
143, -187500,02, -19264,21, -187500,02, -187500,02, -187500,02, -187500,02, -187500,02, -187500,02, 0,00, 0,00, 0,00, 0,00, 0,00, 0,00, 0,00, 0,00, -0,02, 0,00, 1,02
144, -187500,02, -19772,96, -187500,02, -187500,02, -187500,02, -187500,02, -187500,02, -187500,02, 0,00, 0,00, 0,00, 0,00, 0,00, 0,00, 0,00, 0,00, -0,02, 0,00, 1,02
145, -187500,02, -20079,38, -187500,02, -187500,02, -187500,02, -187500,02, -187500,02, -187500,02, 0,00, 0,00, 0,00, 0,00, 0,00, 0,00, 0,00, 0,00, -0,02, 0,00, 1,02
146, -187500,02, -19822,69, -187500,02, -187500,02, -187500,02, -187500,02, -187500,02, -187500,02, 0,00, 0,00, 0,00, 0,00, 0,00, 0,00, 0,00, 0,00, -0,02, 0,00, 1,02
147, -187500,02, -19368,21, -187500,02, -187500,02, -187500,02, -187500,02, -187500,02, -187500,02, 0,00, 0,00, 0,00, 0,00, 0,00, 0,00, 0,00, 0,00, -0,02, 0,00, 1,02
148, -187500,02, -19355,69, -187500,02, -187500,02, -187500,02, -187500,02, -187500,02, -187500,02, 0,00, 0,00, 0,00, 0,00, 0,00, 0,00, 0,00, 0,00, -0,02, 0,00, 1,02
149, -187500,02, -19874,19, -187500,02, -187500,02, -187500,02, -187500,02, -187500,02, -187500,02, 0,00, 0,00, 0,00, 0,00, 0,00, 0,00, 0,00, 0,00, -0,02, 0,00, 1,02
150, -187500,02, -20205,80, -187500,02, -187500,02, -187500,02, -187500,02, -187500,02, -187500,02, 0,00, 0,00, 0,00, 0,00, 0,00, 0,00, 0,00, 0,00, -0,02, 0,00, 1,02
151, -187500,02, -19907,83, -187500,02, -187500,02, -187500,02, -187500,02, -187500,02, -187500,02, 0,00, 0,00, 0,00, 0,00, 0,00, 0,00, 0,00, 0,00, -0,02, 0,00, 1,02
152, -187500,02, -19445,17, -187500,02, -187500,02, -187500,02, -187500,02, -187500,02, -187500,02, 0,00, 0,00, 0,00, 0,00, 0,00, 0,00, 0,00, 0,00, -0,02, 0,00, 1,02
153, -187500,02, -19463,21, -187500,02, -187500,02, -187500,02, -187500,02, -187500,02, -187500,02, 0,00, 0,00, 0,00, 0,00, 0,00, 0,00, 0,00, 0,00, -0,02, 0,00, 1,02
154, -187500,02, -19987,87, -187500,02, -187500,02, -187500,02, -187500,02, -187500,02, -187500,02, 0,00, 0,00, 0,00, 0,00, 0,00, 0,00, 0,00, 0,00, -0,02, 0,00, 1,02
155, -187500,02, -20304,01, -187500,02, -187500,02, -187500,02, -187500,02, -187500,02, -187500,02, 0,00, 0,00, 0,00, 0,00, 0,00, 0,00, 0,00, 0,00, -0,02, 0,00, 1,02
156, -187500,02, -20072,58, -187500,02, -187500,02, -187500,02, -187500,02, -187500,02, -187500,02, 0,00, 0,00, 0,00, 0,00, 0,00, 0,00, 0,00, 0,00, -0,02, 0,00, 1,02
157, -187500,02, -19574,67, -187500,02, -187500,02, -187500,02, -187500,02, -187500,02, -187500,02, 0,00, 0,00, 0,00, 0,00, 0,00, 0,00, 0,00, 0,00, -0,02, 0,00, 1,02
158, -187500,02, -19564,46, -187500,02, -187500,02, -187500,02, -187500,02, -187500,02, -187500,02, 0,00, 0,00, 0,00, 0,00, 0,00, 0,00, 0,00, 0,00, -0,02, 0,00, 1,02
159, -187500,02, -20073,72, -187500,02, -187500,02, -187500,02, -187500,02, -187500,02, -187500,02, 0,00, 0,00, 0,00, 0,00, 0,00, 0,00, 0,00, 0,00, -0,02, 0,00, 1,02
160, -187500,02, -20427,17, -187500,02, -187500,02, -187500,02, -187500,02, -187500,02, -187500,02, 0,00, 0,00, 0,00, 0,00, 0,00, 0,00, 0,00, 0,00, -0,02, 0,00, 1,02
161, -187500,02, -20185,46, -187500,02, -187500,02, -187500,02, -187500,02, -187500,02, -187500,02, 0,00, 0,00, 0,00, 0,00, 0,00, 0,00, 0,00, 0,00, -0,02, 0,00, 1,02
162, -187500,02, -19680,20, -187500,02, -187500,02, -187500,02, -187500,02, -187500,02, -187500,02, 0,00, 0,00, 0,00, 0,00, 0,00, 0,00, 0,00, 0,00, -0,02, 0,00, 1,02
163, -187500,02, -19665,71, -187500,02, -187500,02, -187500,02, -187500,02, -187500,02, -187500,02, 0,00, 0,00, 0,00, 0,00, 0,00, 0,00, 0,00, 0,00, -0,01, 0,01, 1,02
164, -187500,02, -20150,88, -187500,02, -187500,02, -187500,02, -187500,02, -187500,02, -187500,02, 0,00, 0,00, 0,00, 0,00, 0,00, 0,00, 0,00, 0,00, -0,01, 0,01, 1,02
165, -187500,02, -20500,39, -187500,02, -187500,02, -187500,02, -187500,02, -187500,02, -187500,02, 0,00, 0,00, 0,00, 0,00, 0,00, 0,00, 0,00, 0,00, -0,01, 0,01, 1,02
166, -187500,02, -20266,93, -187500,02, -187500,02, -187500,02, -187500,02, -187500,02, -187500,02, 0,00, 0,00, 0,00, 0,00, 0,00, 0,00, 0,00, 0,00, -0,01, 0,01, 1,02
167, -187500,02, -19728,28, -187500,02, -187500,02, -187500,02, -187500,02, -187500,02, -187500,02, 0,00, 0,00, 0,00, 0,00, 0,00, 0,00, 0,00, 0,00, -0,01, 0,01, 1,02
168, -187500,02, -19750,83, -187500,02, -187500,02, -187500,02, -187500,02, -187500,02, -187500,02, 0,00, 0,00, 0,00, 0,00, 0,00, 0,00, 0,00, 0,00, -0,02, 0,00, 1,01
169, -187500,02, -20293,62, -187500,02, -187500,02, -187500,02, -187500,02, -187500,02, -187500,02, 0,00, 0,00, 0,00, 0,00, 0,00, 0,00, 0,00, 0,00, -0,02, 0,00, 1,01
170, -187500,02, -20601,42, -187500,02, -187500,02, -187500,02, -187500,02, -187500,02, -187500,02, 0,00, 0,00, 0,00, 0,00, 0,00, 0,00, 0,00, 0,00, -0,02, 0,00, 1,01
171, -187500,02, -20343,93, -187500,02, -187500,02, -187500,02, -187500,02, -187500,02, -187500,02, 0,00, 0,00, 0,00, 0,00, 0,00, 0,00, 0,00, 0,00, -0,02, 0,00, 1,01
172, -187500,02, -19899,58, -187500,02, -187500,02, -187500,02, -187500,02, -187500,02, -187500,02, 0,00, 0,00, 0,00, 0,00, 0,00, 0,00, 0,00, 0,00, -0,02, 0,00, 1,01
173, -187500,02, -19856,82, -187500,02, -187500,02, -187500,02, -187500,02, -187500,02, -187500,02, 0,00, 0,00, 0,00, 0,00, 0,00, 0,00, 0,00, 0,00, -0,02, 0,01, 1,01
174, -187500,02, -20340,87, -187500,02, -187500,02, -187500,02, -187500,02, -187500,02, -187500,02, 0,00, 0,00, 0,00, 0,00, 0,00, 0,00, 0,00, 0,00, -0,02, 0,01, 1,01
175, -187500,02, -20711,84, -187500,02, -187500,02, -187500,02, -187500,02, -187500,02, -187500,02, 0,00, 0,00, 0,00, 0,00, 0,00, 0,00, 0,00, 0,00, -0,02, 0,01, 1,01
176, -187500,02, -20458,82, -187500,02, -187500,02, -187500,02, -187500,02, -187500,02, -187500,02, 0,00, 0,00, 0,00, 0,00, 0,00, 0,00, 0,00, 0,00, -0,02, 0,01, 1,01
177, -187500,02, -19946,90, -187500,02, -187500,02, -187500,02, -187500,02, -187500,02, -187500,02, 0,00, 0,00, 0,00, 0,00, 0,00, 0,00, 0,00, 0,00, -0,02, 0,01, 1,01
178, -187500,02, -19904,05, -187500,02, -187500,02, -187500,02, -187500,02, -187500,02, -187500,02, 0,00, 0,00, 0,00, 0,00, 0,00, 0,00, 0,00, 0,00, -0,02, 0,01, 1,02
179, -187500,02, -20416,96, -187500,02, -187500,02, -187500,02, -187500,02, -187500,02, -187500,02, 0,00, 0,00, 0,00, 0,00, 0,00, 0,00, 0,00, 0,00, -0,02, 0,01, 1,02
180, -187500,02, -20793,94, -187500,02, -187500,02, -187500,02, -187500,02, -187500,02, -187500,02, 0,00, 0,00, 0,00, 0,00, 0,00, 0,00, 0,00, 0,00, -0,02, 0,01, 1,02
181, -187500,02, -20566,67, -187500,02, -187500,02, -187500,02, -187500,02, -187500,02, -187500,02, 0,00, 0,00, 0,00, 0,00, 0,00, 0,00, 0,00, 0,00, -0,02, 0,01, 1,02
182, -187500,02, -20066,66, -187500,02, -187500,02, -187500,02, -187500,02, -187500,02, -187500,02, 0,00, 0,00, 0,00, 0,00, 0,00, 0,00, 0,00, 0,00, -0,02, 0,01, 1,02
183, -187500,02, -20048,11, -187500,02, -187500,02, -187500,02, -187500,02, -187500,02, -187500,02, 0,00, 0,00, 0,00, 0,00, 0,00, 0,00, 0,00, 0,00, -0,02, 0,00, 1,01
184, -187500,02, -20525,23, -187500,02, -187500,02, -187500,02, -187500,02, -187500,02, -187500,02, 0,00, 0,00, 0,00, 0,00, 0,00, 0,00, 0,00, 0,00, -0,02, 0,00, 1,01
185, -187500,02, -20849,28, -187500,02, -187500,02, -187500,02, -187500,02, -187500,02, -187500,02, 0,00, 0,00, 0,00, 0,00, 0,00, 0,00, 0,00, 0,00, -0,02, 0,00, 1,01
186, -187500,02, -20599,77, -187500,02, -187500,02, -187500,02, -187500,02, -187500,02, -187500,02, 0,00, 0,00, 0,00, 0,00, 0,00, 0,00, 0,00, 0,00, -0,02, 0,00, 1,01
187, -187500,02, -20170,93, -187500,02, -187500,02, -187500,02, -187500,02, -187500,02, -187500,02, 0,00, 0,00, 0,00, 0,00, 0,00, 0,00, 0,00, 0,00, -0,02, 0,00, 1,01
188, -187500,02, -20141,31, -187500,02, -187500,02, -187500,02, -187500,02, -187500,02, -187500,02, 0,00, 0,00, 0,00, 0,00, 0,00, 0,00, 0,00, 0,00, -0,01, 0,01, 1,01
189, -187500,02, -20621,38, -187500,02, -187500,02, -187500,02, -187500,02, -187500,02, -187500,02, 0,00, 0,00, 0,00, 0,00, 0,00, 0,00, 0,00, 0,00, -0,01, 0,01, 1,01
190, -187500,02, -20992,11, -187500,02, -187500,02, -187500,02, -187500,02, -187500,02, -187500,02, 0,00, 0,00, 0,00, 0,00, 0,00, 0,00, 0,00, 0,00, -0,01, 0,01, 1,01
191, -187500,02, -20741,28, -187500,02, -187500,02, -187500,02, -187500,02, -187500,02, -187500,02, 0,00, 0,00, 0,00, 0,00, 0,00, 0,00, 0,00, 0,00, -0,01, 0,01, 1,01
192, -187500,02, -20232,04, -187500,02, -187500,02, -187500,02, -187500,02, -187500,02, -187500,02, 0,00, 0,00, 0,00, 0,00, 0,00, 0,00, 0,00, 0,00, -0,01, 0,01, 1,01
193, -187500,02, -20170,62, -187500,02, -187500,02, -187500,02, -187500,02, -187500,02, -187500,02, 0,00, 0,00, 0,00, 0,00, 0,00, 0,00, 0,00, 0,00, -0,02, 0,01, 1,01
194, -187500,02, -20683,54, -187500,02, -187500,02, -187500,02, -187500,02, -187500,02, -187500,02, 0,00, 0,00, 0,00, 0,00, 0,00, 0,00, 0,00, 0,00, -0,02, 0,01, 1,01
195, -187500,02, -21061,11, -187500,02, -187500,02, -187500,02, -187500,02, -187500,02, -187500,02, 0,00, 0,00, 0,00, 0,00, 0,00, 0,00, 0,00, 0,00, -0,02, 0,01, 1,01
196, -187500,02, -20853,53, -187500,02, -187500,02, -187500,02, -187500,02, -187500,02, -187500,02, 0,00, 0,00, 0,00, 0,00, 0,00, 0,00, 0,00, 0,00, -0,02, 0,01, 1,01
197, -187500,02, -20347,37, -187500,02, -187500,02, -187500,02, -187500,02, -187500,02, -187500,02, 0,00, 0,00, 0,00, 0,00, 0,00, 0,00, 0,00, 0,00, -0,02, 0,01, 1,01
198, -187500,02, -20277,70, -187500,02, -187500,02, -187500,02, -187500,02, -187500,02, -187500,02, 0,00, 0,00, 0,00, 0,00, 0,00, 0,00, 0,00, 0,00, -0,02, 0,00, 1,01
199, -187500,02, -20762,33, -187500,02, -187500,02, -187500,02, -187500,02, -187500,02, -187500,02, 0,00, 0,00, 0,00, 0,00, 0,00, 0,00, 0,00, 0,00, -0,02, 0,00, 1,01
200, -187500,02, -21142,76, -187500,02, -187500,02, -187500,02, -187500,02, -187500,02, -187500,02, 0,00, 0,00, 0,00, 0,00, 0,00, 0,00, 0,00, 0,00, -0,02, 0,00, 1,01
201, -187500,02, -20906,35, -187500,02, -187500,02, -187500,02, -187500,02, -187500,02, -187500,02, 0,00, 0,00, 0,00, 0,00, 0,00, 0,00, 0,00, 0,00, -0,02, 0,00, 1,01
202, -187500,02, -20404,39, -187500,02, -187500,02, -187500,02, -187500,02, -187500,02, -187500,02, 0,00, 0,00, 0,00, 0,00, 0,00, 0,00, 0,00, 0,00, -0,02, 0,00, 1,01
203, -187500,02, -20347,06, -187500,02, -187500,02, -187500,02, -187500,02, -187500,02, -187500,02, 0,00, 0,00, 0,00, 0,00, 0,00, 0,00, 0,00, 0,00, -0,02, 0,01, 1,01
204, -187500,02, -20823,67, -187500,02, -187500,02, -187500,02, -187500,02, -187500,02, -187500,02, 0,00, 0,00, 0,00, 0,00, 0,00, 0,00, 0,00, 0,00, -0,02, 0,01, 1,01
205, -187500,02, -21227,38, -187500,02, -187500,02, -187500,02, -187500,02, -187500,02, -187500,02, 0,00, 0,00, 0,00, 0,00, 0,00, 0,00, 0,00, 0,00, -0,02, 0,01, 1,01
206, -187500,02, -21015,18, -187500,02, -187500,02, -187500,02, -187500,02, -187500,02, -187500,02, 0,00, 0,00, 0,00, 0,00, 0,00, 0,00, 0,00, 0,00, -0,02, 0,01, 1,01
207, -187500,02, -20503,46, -187500,02, -187500,02, -187500,02, -187500,02, -187500,02, -187500,02, 0,00, 0,00, 0,00, 0,00, 0,00, 0,00, 0,00, 0,00, -0,02, 0,01, 1,01
208, -187500,02, -20453,25, -187500,02, -187500,02, -187500,02, -187500,02, -187500,02, -187500,02, 0,00, 0,00, 0,00, 0,00, 0,00, 0,00, 0,00, 0,00, -0,01, 0,00, 1,01
209, -187500,02, -20922,15, -187500,02, -187500,02, -187500,02, -187500,02, -187500,02, -187500,02, 0,00, 0,00, 0,00, 0,00, 0,00, 0,00, 0,00, 0,00, -0,01, 0,00, 1,01
210, -187500,02, -21304,56, -187500,02, -187500,02, -187500,02, -187500,02, -187500,02, -187500,02, 0,00, 0,00, 0,00, 0,00, 0,00, 0,00, 0,00, 0,00, -0,01, 0,00, 1,01
211, -187500,02, -21086,54, -187500,02, -187500,02, -187500,02, -187500,02, -187500,02, -187500,02, 0,00, 0,00, 0,00, 0,00, 0,00, 0,00, 0,00, 0,00, -0,01, 0,00, 1,01
212, -187500,02, -20585,08, -187500,02, -187500,02, -187500,02, -187500,02, -187500,02, -187500,02, 0,00, 0,00, 0,00, 0,00, 0,00, 0,00, 0,00, 0,00, -0,01, 0,00, 1,01
213, -187500,02, -20504,66, -187500,02, -187500,02, -187500,02, -187500,02, -187500,02, -187500,02, 0,00, 0,00, 0,00, 0,00, 0,00, 0,00, 0,00, 0,00, -0,01, 0,00, 1,02
214, -187500,02, -20940,90, -187500,02, -187500,02, -187500,02, -187500,02, -187500,02, -187500,02, 0,00, 0,00, 0,00, 0,00, 0,00, 0,00, 0,00, 0,00, -0,01, 0,00, 1,02
215, -187500,02, -21276,22, -187500,02, -187500,02, -187500,02, -187500,02, -187500,02, -187500,02, 0,00, 0,00, 0,00, 0,00, 0,00, 0,00, 0,00, 0,00, -0,01, 0,00, 1,02
216, -187500,02, -21218,51, -187500,02, -187500,02, -187500,02, -187500,02, -187500,02, -187500,02, 0,00, 0,00, 0,00, 0,00, 0,00, 0,00, 0,00, 0,00, -0,01, 0,00, 1,02
217, -187500,02, -20759,74, -187500,02, -187500,02, -187500,02, -187500,02, -187500,02, -187500,02, 0,00, 0,00, 0,00, 0,00, 0,00, 0,00, 0,00, 0,00, -0,01, 0,00, 1,02
218, -187500,02, -20621,14, -187500,02, -187500,02, -187500,02, -187500,02, -187500,02, -187500,02, 0,00, 0,00, 0,00, 0,00, 0,00, 0,00, 0,00, 0,00, -0,01, 0,01, 1,02
219, -187500,02, -21070,90, -187500,02, -187500,02, -187500,02, -187500,02, -187500,02, -187500,02, 0,00, 0,00, 0,00, 0,00, 0,00, 0,00, 0,00, 0,00, -0,01, 0,01, 1,02
220, -187500,02, -21475,98, -187500,02, -187500,02, -187500,02, -187500,02, -187500,02, -187500,02, 0,00, 0,00, 0,00, 0,00, 0,00, 0,00, 0,00, 0,00, -0,01, 0,01, 1,02
221, -187500,02, -21270,68, -187500,02, -187500,02, -187500,02, -187500,02, -187500,02, -187500,02, 0,00, 0,00, 0,00, 0,00, 0,00, 0,00, 0,00, 0,00, -0,01, 0,01, 1,02
222, -187500,02, -20772,97, -187500,02, -187500,02, -187500,02, -187500,02, -187500,02, -187500,02, 0,00, 0,00, 0,00, 0,00, 0,00, 0,00, 0,00, 0,00, -0,01, 0,01, 1,02
223, -187500,02, -20659,87, -187500,02, -187500,02, -187500,02, -187500,02, -187500,02, -187500,02, 0,00, 0,00, 0,00, 0,00, 0,00, 0,00, 0,00, 0,00, -0,02, 0,01, 1,01
224, -187500,02, -21107,96, -187500,02, -187500,02, -187500,02, -187500,02, -187500,02, -187500,02, 0,00, 0,00, 0,00, 0,00, 0,00, 0,00, 0,00, 0,00, -0,02, 0,01, 1,01
225, -187500,02, -21507,27, -187500,02, -187500,02, -187500,02, -187500,02, -187500,02, -187500,02, 0,00, 0,00, 0,00, 0,00, 0,00, 0,00, 0,00, 0,00, -0,02, 0,01, 1,01
226, -187500,02, -21312,68, -187500,02, -187500,02, -187500,02, -187500,02, -187500,02, -187500,02, 0,00, 0,00, 0,00, 0,00, 0,00, 0,00, 0,00, 0,00, -0,02, 0,01, 1,01
227, -187500,02, -20826,39, -187500,02, -187500,02, -187500,02, -187500,02, -187500,02, -187500,02, 0,00, 0,00, 0,00, 0,00, 0,00, 0,00, 0,00, 0,00, -0,02, 0,01, 1,01
228, -187500,02, -20743,76, -187500,02, -187500,02, -187500,02, -187500,02, -187500,02, -187500,02, 0,00, 0,00, 0,00, 0,00, 0,00, 0,00, 0,00, 0,00, -0,01, 0,01, 1,01
229, -187500,02, -21186,01, -187500,02, -187500,02, -187500,02, -187500,02, -187500,02, -187500,02, 0,00, 0,00, 0,00, 0,00, 0,00, 0,00, 0,00, 0,00, -0,01, 0,01, 1,01
230, -187500,02, -21568,31, -187500,02, -187500,02, -187500,02, -187500,02, -187500,02, -187500,02, 0,00, 0,00, 0,00, 0,00, 0,00, 0,00, 0,00, 0,00, -0,01, 0,01, 1,01
231, -187500,02, -21391,51, -187500,02, -187500,02, -187500,02, -187500,02, -187500,02, -187500,02, 0,00, 0,00, 0,00, 0,00, 0,00, 0,00, 0,00, 0,00, -0,01, 0,01, 1,01
232, -187500,02, -20904,20, -187500,02, -187500,02, -187500,02, -187500,02, -187500,02, -187500,02, 0,00, 0,00, 0,00, 0,00, 0,00, 0,00, 0,00, 0,00, -0,01, 0,01, 1,01
233, -187500,02, -20803,01, -187500,02, -187500,02, -187500,02, -187500,02, -187500,02, -187500,02, 0,00, 0,00, 0,00, 0,00, 0,00, 0,00, 0,00, 0,00, -0,01, 0,00, 1,01
234, -187500,02, -21246,99, -187500,02, -187500,02, -187500,02, -187500,02, -187500,02, -187500,02, 0,00, 0,00, 0,00, 0,00, 0,00, 0,00, 0,00, 0,00, -0,01, 0,00, 1,01
235, -187500,02, -21654,12, -187500,02, -187500,02, -187500,02, -187500,02, -187500,02, -187500,02, 0,00, 0,00, 0,00, 0,00, 0,00, 0,00, 0,00, 0,00, -0,01, 0,00, 1,01
236, -187500,02, -21489,06, -187500,02, -187500,02, -187500,02, -187500,02, -187500,02, -187500,02, 0,00, 0,00, 0,00, 0,00, 0,00, 0,00, 0,00, 0,00, -0,01, 0,00, 1,01
237, -187500,02, -20970,34, -187500,02, -187500,02, -187500,02, -187500,02, -187500,02, -187500,02, 0,00, 0,00, 0,00, 0,00, 0,00, 0,00, 0,00, 0,00, -0,01, 0,00, 1,01
238, -187500,02, -20823,87, -187500,02, -187500,02, -187500,02, -187500,02, -187500,02, -187500,02, 0,00, 0,00, 0,00, 0,00, 0,00, 0,00, 0,00, 0,00, -0,02, 0,00, 1,01
239, -187500,02, -21314,00, -187500,02, -187500,02, -187500,02, -187500,02, -187500,02, -187500,02, 0,00, 0,00, 0,00, 0,00, 0,00, 0,00, 0,00, 0,00, -0,02, 0,00, 1,01
240, -187500,02, -21727,39, -187500,02, -187500,02, -187500,02, -187500,02, -187500,02, -187500,02, 0,00, 0,00, 0,00, 0,00, 0,00, 0,00, 0,00, 0,00, -0,02, 0,00, 1,01
241, -187500,02, -21530,50, -187500,02, -187500,02, -187500,02, -187500,02, -187500,02, -187500,02, 0,00, 0,00, 0,00, 0,00, 0,00, 0,00, 0,00, 0,00, -0,02, 0,00, 1,01
242, -187500,02, -21043,79, -187500,02, -187500,02, -187500,02, -187500,02, -187500,02, -187500,02, 0,00, 0,00, 0,00, 0,00, 0,00, 0,00, 0,00, 0,00, -0,02, 0,00, 1,01
243, -187500,02, -20934,33, -187500,02, -187500,02, -187500,02, -187500,02, -187500,02, -187500,02, 0,00, 0,00, 0,00, 0,00, 0,00, 0,00, 0,00, 0,00, -0,02, 0,00, 1,01
244, -187500,02, -21373,54, -187500,02, -187500,02, -187500,02, -187500,02, -187500,02, -187500,02, 0,00, 0,00, 0,00, 0,00, 0,00, 0,00, 0,00, 0,00, -0,02, 0,00, 1,01
245, -187500,02, -21796,12, -187500,02, -187500,02, -187500,02, -187500,02, -187500,02, -187500,02, 0,00, 0,00, 0,00, 0,00, 0,00, 0,00, 0,00, 0,00, -0,02, 0,00, 1,01
246, -187500,02, -21627,61, -187500,02, -187500,02, -187500,02, -187500,02, -187500,02, -187500,02, 0,00, 0,00, 0,00, 0,00, 0,00, 0,00, 0,00, 0,00, -0,02, 0,00, 1,01
247, -187500,02, -21157,96, -187500,02, -187500,02, -187500,02, -187500,02, -187500,02, -187500,02, 0,00, 0,00, 0,00, 0,00, 0,00, 0,00, 0,00, 0,00, -0,02, 0,00, 1,01
248, -187500,02, -21034,29, -187500,02, -187500,02, -187500,02, -187500,02, -187500,02, -187500,02, 0,00, 0,00, 0,00, 0,00, 0,00, 0,00, 0,00, 0,00, -0,02, 0,01, 1,01
249, -187500,02, -21432,19, -187500,02, -187500,02, -187500,02, -187500,02, -187500,02, -187500,02, 0,00, 0,00, 0,00, 0,00, 0,00, 0,00, 0,00, 0,00, -0,02, 0,01, 1,01
250, -187500,02, -21862,38, -187500,02, -187500,02, -187500,02, -187500,02, -187500,02, -187500,02, 0,00, 0,00, 0,00, 0,00, 0,00, 0,00, 0,00, 0,00, -0,02, 0,01, 1,01
251, -187500,02, -21696,32, -187500,02, -187500,02, -187500,02, -187500,02, -187500,02, -187500,02, 0,00, 0,00, 0,00, 0,00, 0,00, 0,00, 0,00, 0,00, -0,02, 0,01, 1,01
252, -187500,02, -21203,36, -187500,02, -187500,02, -187500,02, -187500,02, -187500,02, -187500,02, 0,00, 0,00, 0,00, 0,00, 0,00, 0,00, 0,00, 0,00, -0,02, 0,01, 1,01
253, -187500,02, -21081,92, -187500,02, -187500,02, -187500,02, -187500,02, -187500,02, -187500,02, 0,00, 0,00, 0,00, 0,00, 0,00, 0,00, 0,00, 0,00, -0,02, 0,00, 1,01
254, -187500,02, -21524,64, -187500,02, -187500,02, -187500,02, -187500,02, -187500,02, -187500,02, 0,00, 0,00, 0,00, 0,00, 0,00, 0,00, 0,00, 0,00, -0,02, 0,00, 1,01
255, -187500,02, -21933,34, -187500,02, -187500,02, -187500,02, -187500,02, -187500,02, -187500,02, 0,00, 0,00, 0,00, 0,00, 0,00, 0,00, 0,00, 0,00, -0,02, 0,00, 1,01
0, -187500,02, -21758,44, -187500,02, -187500,02, -187500,02, -187500,02, -187500,02, -187500,02, 0,00, 0,00, 0,00, 0,00, 0,00, 0,00, 0,00, 0,00, -0,02, 0,00, 1,01
1, -187500,02, -21249,06, -187500,02, -187500,02, -187500,02, -187500,02, -187500,02, -187500,02, 0,00, 0,00, 0,00, 0,00, 0,00, 0,00, 0,00, 0,00, -0,02, 0,00, 1,01
2, -187500,02, -21125,84, -187500,02, -187500,02, -187500,02, -187500,02, -187500,02, -187500,02, 0,00, 0,00, 0,00, 0,00, 0,00, 0,00, 0,00, 0,00, -0,02, 0,00, 1,01
3, -187500,02, -21560,47, -187500,02, -187500,02, -187500,02, -187500,02, -187500,02, -187500,02, 0,00, 0,00, 0,00, 0,00, 0,00, 0,00, 0,00, 0,00, -0,02, 0,00, 1,01
4, -187500,02, -21964,50, -187500,02, -187500,02, -187500,02, -187500,02, -187500,02, -187500,02, 0,00, 0,00, 0,00, 0,00, 0,00, 0,00, 0,00, 0,00, -0,02, 0,00, 1,01
5, -187500,02, -21829,07, -187500,02, -187500,02, -187500,02, -187500,02, -187500,02, -187500,02, 0,00, 0,00, 0,00, 0,00, 0,00, 0,00, 0,00, 0,00, -0,02, 0,00, 1,01
6, -187500,02, -21366,28, -187500,02, -187500,02, -187500,02, -187500,02, -187500,02, -187500,02, 0,00, 0,00, 0,00, 0,00, 0,00, 0,00, 0,00, 0,00, -0,02, 0,00, 1,01
7, -187500,02, -21210,17, -187500,02, -187500,02, -187500,02, -187500,02, -187500,02, -187500,02, 0,00, 0,00, 0,00, 0,00, 0,00, 0,00, 0,00, 0,00, -0,02, 0,01, 1,01
8, -187500,02, -21650,77, -187500,02, -187500,02, -187500,02, -187500,02, -187500,02, -187500,02, 0,00, 0,00, 0,00, 0,00, 0,00, 0,00, 0,00, 0,00, -0,02, 0,01, 1,01
9, -187500,02, -22063,52, -187500,02, -187500,02, -187500,02, -187500,02, -187500,02, -187500,02, 0,00, 0,00, 0,00, 0,00, 0,00, 0,00, 0,00, 0,00, -0,02, 0,01, 1,01
10, -187500,02, -21951,07, -187500,02, -187500,02, -187500,02, -187500,02, -187500,02, -187500,02, 0,00, 0,00, 0,00, 0,00, 0,00, 0,00, 0,00, 0,00, -0,02, 0,01, 1,01
11, -187500,02, -21435,23, -187500,02, -187500,02, -187500,02, -187500,02, -187500,02, -187500,02, 0,00, 0,00, 0,00, 0,00, 0,00, 0,00, 0,00, 0,00, -0,02, 0,01, 1,01
12, -187500,02, -21276,11, -187500,02, -187500,02, -187500,02, -187500,02, -187500,02, -187500,02, 0,00, 0,00, 0,00, 0,00, 0,00, 0,00, 0,00, 0,00, -0,02, 0,00, 1,02
13, -187500,02, -21719,12, -187500,02, -187500,02, -187500,02, -187500,02, -187500,02, -187500,02, 0,00, 0,00, 0,00, 0,00, 0,00, 0,00, 0,00, 0,00, -0,02, 0,00, 1,02
14, -187500,02, -22142,55, -187500,02, -187500,02, -187500,02, -187500,02, -187500,02, -187500,02, 0,00, 0,00, 0,00, 0,00, 0,00, 0,00, 0,00, 0,00, -0,02, 0,00, 1,02
15, -187500,02, -21988,57, -187500,02, -187500,02, -187500,02, -187500,02, -187500,02, -187500,02, 0,00, 0,00, 0,00, 0,00, 0,00, 0,00, 0,00, 0,00, -0,02, 0,00, 1,02
16, -187500,02, -21485,70, -187500,02, -187500,02, -187500,02, -187500,02, -187500,02, -187500,02, 0,00, 0,00, 0,00, 0,00, 0,00, 0,00, 0,00, 0,00, -0,02, 0,00, 1,02
17, -187500,02, -21340,44, -187500,02, -187500,02, -187500,02, -187500,02, -187500,02, -187500,02, 0,00, 0,00, 0,00, 0,00, 0,00, 0,00, 0,00, 0,00, -0,01, 0,01, 1,02
18, -187500,02, -21771,98, -187500,02, -187500,02, -187500,02, -187500,02, -187500,02, -187500,02, 0,00, 0,00, 0,00, 0,00, 0,00, 0,00, 0,00, 0,00, -0,01, 0,01, 1,02
19, -187500,02, -22209,72, -187500,02, -187500,02, -187500,02, -187500,02, -187500,02, -187500,02, 0,00, 0,00, 0,00, 0,00, 0,00, 0,00, 0,00, 0,00, -0,01, 0,01, 1,02
20, -187500,02, -22098,63, -187500,02, -187500,02, -187500,02, -187500,02, -187500,02, -187500,02, 0,00, 0,00, 0,00, 0,00, 0,00, 0,00, 0,00, 0,00, -0,01, 0,01, 1,02
21, -187500,02, -21597,04, -187500,02, -187500,02, -187500,02, -187500,02, -187500,02, -187500,02, 0,00, 0,00, 0,00, 0,00, 0,00, 0,00, 0,00, 0,00, -0,01, 0,01, 1,02
22, -187500,02, -21442,47, -187500,02, -187500,02, -187500,02, -187500,02, -187500,02, -187500,02, 0,00, 0,00, 0,00, 0,00, 0,00, 0,00, 0,00, 0,00, -0,01, 0,00, 1,02
23, -187500,02, -21843,87, -187500,02, -187500,02, -187500,02, -187500,02, -187500,02, -187500,02, 0,00, 0,00, 0,00, 0,00, 0,00, 0,00, 0,00, 0,00, -0,01, 0,00, 1,02
24, -187500,02, -22236,88, -187500,02, -187500,02, -187500,02, -187500,02, -187500,02, -187500,02, 0,00, 0,00, 0,00, 0,00, 0,00, 0,00, 0,00, 0,00, -0,01, 0,00, 1,02
25, -187500,02, -22123,40, -187500,02, -187500,02, -187500,02, -187500,02, -187500,02, -187500,02, 0,00, 0,00, 0,00, 0,00, 0,00, 0,00, 0,00, 0,00, -0,01, 0,00, 1,02
26, -187500,02, -21659,58, -187500,02, -187500,02, -187500,02, -187500,02, -187500,02, -187500,02, 0,00, 0,00, 0,00, 0,00, 0,00, 0,00, 0,00, 0,00, -0,01, 0,00, 1,02
27, -187500,02, -21496,37, -187500,02, -187500,02, -187500,02, -187500,02, -187500,02, -187500,02, 0,00, 0,00, 0,00, 0,00, 0,00, 0,00, 0,00, 0,00, -0,01, -0,00, 1,02
28, -187500,02, -21913,07, -187500,02, -187500,02, -187500,02, -187500,02, -187500,02, -187500,02, 0,00, 0,00, 0,00, 0,00, 0,00, 0,00, 0,00, 0,00, -0,01, -0,00, 1,02
29, -187500,02, -22331,72, -187500,02, -187500,02, -187500,02, -187500,02, -187500,02, -187500,02, 0,00, 0,00, 0,00, 0,00, 0,00, 0,00, 0,00, 0,00, -0,01, -0,00, 1,02
30, -187500,02, -22207,62, -187500,02, -187500,02, -187500,02, -187500,02, -187500,02, -187500,02, 0,00, 0,00, 0,00, 0,00, 0,00, 0,00, 0,00, 0,00, -0,01, -0,00, 1,02
31, -187500,02, -21713,51, -187500,02, -187500,02, -187500,02, -187500,02, -187500,02, -187500,02, 0,00, 0,00, 0,00, 0,00, 0,00, 0,00, 0,00, 0,00, -0,01, -0,00, 1,02
32, -187500,02, -21497,95, -187500,02, -187500,02, -187500,02, -187500,02, -187500,02, -187500,02, 0,00, 0,00, 0,00, 0,00, 0,00, 0,00, 0,00, 0,00, -0,02, 0,00, 1,01
33, -187500,02, -21923,13, -187500,02, -187500,02, -187500,02, -187500,02, -187500,02, -187500,02, 0,00, 0,00, 0,00, 0,00, 0,00, 0,00, 0,00, 0,00, -0,02, 0,00, 1,01
34, -187500,02, -22362,94, -187500,02, -187500,02, -187500,02, -187500,02, -187500,02, -187500,02, 0,00, 0,00, 0,00, 0,00, 0,00, 0,00, 0,00, 0,00, -0,02, 0,00, 1,01
35, -187500,02, -22243,27, -187500,02, -187500,02, -187500,02, -187500,02, -187500,02, -187500,02, 0,00, 0,00, 0,00, 0,00, 0,00, 0,00, 0,00, 0,00, -0,02, 0,00, 1,01
36, -187500,02, -21778,51, -187500,02, -187500,02, -187500,02, -187500,02, -187500,02, -187500,02, 0,00, 0,00, 0,00, 0,00, 0,00, 0,00, 0,00, 0,00, -0,02, 0,00, 1,01
37, -187500,02, -21596,79, -187500,02, -187500,02, -187500,02, -187500,02, -187500,02, -187500,02, 0,00, 0,00, 0,00, 0,00, 0,00, 0,00, 0,00, 0,00, -0,02, 0,01, 1,01
38, -187500,02, -22024,20, -187500,02, -187500,02, -187500,02, -187500,02, -187500,02, -187500,02, 0,00, 0,00, 0,00, 0,00, 0,00, 0,00, 0,00, 0,00, -0,02, 0,01, 1,01
39, -187500,02, -22462,72, -187500,02, -187500,02, -187500,02, -187500,02, -187500,02, -187500,02, 0,00, 0,00, 0,00, 0,00, 0,00, 0,00, 0,00, 0,00, -0,02, 0,01, 1,01
40, -187500,02, -22338,13, -187500,02, -187500,02, -187500,02, -187500,02, -187500,02, -187500,02, 0,00, 0,00, 0,00, 0,00, 0,00, 0,00, 0,00, 0,00, -0,02, 0,01, 1,01
41, -187500,02, -21828,62, -187500,02, -187500,02, -187500,02, -187500,02, -187500,02, -187500,02, 0,00, 0,00, 0,00, 0,00, 0,00, 0,00, 0,00, 0,00, -0,02, 0,01, 1,01
42, -187500,02, -21644,98, -187500,02, -187500,02, -187500,02, -187500,02, -187500,02, -187500,02, 0,00, 0,00, 0,00, 0,00, 0,00, 0,00, 0,00, 0,00, -0,02, 0,01, 1,01
43, -187500,02, -22067,25, -187500,02, -187500,02, -187500,02, -187500,02, -187500,02, -187500,02, 0,00, 0,00, 0,00, 0,00, 0,00, 0,00, 0,00, 0,00, -0,01, 0,01, 1,02
44, -187500,02, -22514,51, -187500,02, -187500,02, -187500,02, -187500,02, -187500,02, -187500,02, 0,00, 0,00, 0,00, 0,00, 0,00, 0,00, 0,00, 0,00, -0,01, 0,01, 1,02
45, -187500,02, -22394,35, -187500,02, -187500,02, -187500,02, -187500,02, -187500,02, -187500,02, 0,00, 0,00, 0,00, 0,00, 0,00, 0,00, 0,00, 0,00, -0,01, 0,01, 1,02
46, -187500,02, -21871,90, -187500,02, -187500,02, -187500,02, -187500,02, -187500,02, -187500,02, 0,00, 0,00, 0,00, 0,00, 0,00, 0,00, 0,00, 0,00, -0,01, 0,01, 1,02
47, -187500,02, -21650,64, -187500,02, -187500,02, -187500,02, -187500,02, -187500,02, -187500,02, 0,00, 0,00, 0,00, 0,00, 0,00, 0,00, 0,00, 0,00, -0,01, 0,01, 1,02
48, -187500,02, -22156,63, -187500,02, -187500,02, -187500,02, -187500,02, -187500,02, -187500,02, 0,00, 0,00, 0,00, 0,00, 0,00, 0,00, 0,00, 0,00, -0,01, 0,00, 1,01
49, -187500,02, -22614,22, -187500,02, -187500,02, -187500,02, -187500,02, -187500,02, -187500,02, 0,00, 0,00, 0,00, 0,00, 0,00, 0,00, 0,00, 0,00, -0,01, 0,00, 1,01
50, -187500,02, -22449,02, -187500,02, -187500,02, -187500,02, -187500,02, -187500,02, -187500,02, 0,00, 0,00, 0,00, 0,00, 0,00, 0,00, 0,00, 0,00, -0,01, 0,00, 1,01
51, -187500,02, -21946,71, -187500,02, -187500,02, -187500,02, -187500,02, -187500,02, -187500,02, 0,00, 0,00, 0,00, 0,00, 0,00, 0,00, 0,00, 0,00, -0,01, 0,00, 1,01
52, -187500,02, -21791,12, -187500,02, -187500,02, -187500,02, -187500,02, -187500,02, -187500,02, 0,00, 0,00, 0,00, 0,00, 0,00, 0,00, 0,00, 0,00, -0,01, 0,00, 1,01
53, -187500,02, -22215,55, -187500,02, -187500,02, -187500,02, -187500,02, -187500,02, -187500,02, 0,00, 0,00, 0,00, 0,00, 0,00, 0,00, 0,00, 0,00, -0,01, 0,00, 1,02
54, -187500,02, -22636,10, -187500,02, -187500,02, -187500,02, -187500,02, -187500,02, -187500,02, 0,00, 0,00, 0,00, 0,00, 0,00, 0,00, 0,00, 0,00, -0,01, 0,00, 1,02
55, -187500,02, -22507,89, -187500,02, -187500,02, -187500,02, -187500,02, -187500,02, -187500,02, 0,00, 0,00, 0,00, 0,00, 0,00, 0,00, 0,00, 0,00, -0,01, 0,00, 1,02
56, -187500,02, -22029,63, -187500,02, -187500,02, -187500,02, -187500,02, -187500,02, -187500,02, 0,00, 0,00, 0,00, 0,00, 0,00, 0,00, 0,00, 0,00, -0,01, 0,00, 1,02
57, -187500,02, -21837,79, -187500,02, -187500,02, -187500,02, -187500,02, -187500,02, -187500,02, 0,00, 0,00, 0,00, 0,00, 0,00, 0,00, 0,00, 0,00, -0,01, 0,00, 1,02
58, -187500,02, -22215,04, -187500,02, -187500,02, -187500,02, -187500,02, -187500,02, -187500,02, 0,00, 0,00, 0,00, 0,00, 0,00, 0,00, 0,00, 0,00, -0,01, 0,01, 1,02
59, -187500,02, -22636,44, -187500,02, -187500,02, -187500,02, -187500,02, -187500,02, -187500,02, 0,00, 0,00, 0,00, 0,00, 0,00, 0,00, 0,00, 0,00, -0,01, 0,01, 1,02
60, -187500,02, -22532,32, -187500,02, -187500,02, -187500,02, -187500,02, -187500,02, -187500,02, 0,00, 0,00, 0,00, 0,00, 0,00, 0,00, 0,00, 0,00, -0,01, 0,01, 1,02
61, -187500,02, -22093,71, -187500,02, -187500,02, -187500,02, -187500,02, -187500,02, -187500,02, 0,00, 0,00, 0,00, 0,00, 0,00, 0,00, 0,00, 0,00, -0,01, 0,01, 1,02
62, -187500,02, -21904,80, -187500,02, -187500,02, -187500,02, -187500,02, -187500,02, -187500,02, 0,00, 0,00, 0,00, 0,00, 0,00, 0,00, 0,00, 0,00, -0,01, 0,01, 1,02
63, -187500,02, -22311,40, -187500,02, -187500,02, -187500,02, -187500,02, -187500,02, -187500,02, 0,00, 0,00, 0,00, 0,00, 0,00, 0,00, 0,00, 0,00, -0,01, 0,00, 1,02
64, -187500,02, -22761,52, -187500,02, -187500,02, -187500,02, -187500,02, -187500,02, -187500,02, 0,00, 0,00, 0,00, 0,00, 0,00, 0,00, 0,00, 0,00, -0,01, 0,00, 1,02
65, -187500,02, -22651,70, -187500,02, -187500,02, -187500,02, -187500,02, -187500,02, -187500,02, 0,00, 0,00, 0,00, 0,00, 0,00, 0,00, 0,00, 0,00, -0,01, 0,00, 1,02
66, -187500,02, -22145,30, -187500,02, -187500,02, -187500,02, -187500,02, -187500,02, -187500,02, 0,00, 0,00, 0,00, 0,00, 0,00, 0,00, 0,00, 0,00, -0,01, 0,00, 1,02
67, -187500,02, -21912,69, -187500,02, -187500,02, -187500,02, -187500,02, -187500,02, -187500,02, 0,00, 0,00, 0,00, 0,00, 0,00, 0,00, 0,00, 0,00, -0,01, 0,00, 1,02
68, -187500,02, -22270,99, -187500,02, -187500,02, -187500,02, -187500,02, -187500,02, -187500,02, 0,00, 0,00, 0,00, 0,00, 0,00, 0,00, 0,00, 0,00, -0,02, -0,00, 1,02
69, -187500,02, -22787,24, -187500,02, -187500,02, -187500,02, -187500,02, -187500,02, -187500,02, 0,00, 0,00, 0,00, 0,00, 0,00, 0,00, 0,00, 0,00, -0,02, -0,00, 1,02
70, -187500,02, -22726,54, -187500,02, -187500,02, -187500,02, -187500,02, -187500,02, -187500,02, 0,00, 0,00, 0,00, 0,00, 0,00, 0,00, 0,00, 0,00, -0,02, -0,00, 1,02
71, -187500,02, -22153,06, -187500,02, -187500,02, -187500,02, -187500,02, -187500,02, -187500,02, 0,00, 0,00, 0,00, 0,00, 0,00, 0,00, 0,00, 0,00, -0,02, -0,00, 1,02
72, -187500,02, -21979,30, -187500,02, -187500,02, -187500,02, -187500,02, -187500,02, -187500,02, 0,00, 0,00, 0,00, 0,00, 0,00, 0,00, 0,00, 0,00, -0,02, -0,00, 1,02
73, -187500,02, -22430,06, -187500,02, -187500,02, -187500,02, -187500,02, -187500,02, -187500,02, 0,00, 0,00, 0,00, 0,00, 0,00, 0,00, 0,00, 0,00, -0,02, 0,01, 1,02
74, -187500,02, -22872,83, -187500,02, -187500,02, -187500,02, -187500,02, -187500,02, -187500,02, 0,00, 0,00, 0,00, 0,00, 0,00, 0,00, 0,00, 0,00, -0,02, 0,01, 1,02
75, -187500,02, -22753,03, -187500,02, -187500,02, -187500,02, -187500,02, -187500,02, -187500,02, 0,00, 0,00, 0,00, 0,00, 0,00, 0,00, 0,00, 0,00, -0,02, 0,01, 1,02
76, -187500,02, -22287,91, -187500,02, -187500,02, -187500,02, -187500,02, -187500,02, -187500,02, 0,00, 0,00, 0,00, 0,00, 0,00, 0,00, 0,00, 0,00, -0,02, 0,01, 1,02
77, -187500,02, -22042,55, -187500,02, -187500,02, -187500,02, -187500,02, -187500,02, -187500,02, 0,00, 0,00, 0,00, 0,00, 0,00, 0,00, 0,00, 0,00, -0,02, 0,01, 1,02
78, -187500,02, -22408,65, -187500,02, -187500,02, -187500,02, -187500,02, -187500,02, -187500,02, 0,00, 0,00, 0,00, 0,00, 0,00, 0,00, 0,00, 0,00, -0,02, 0,00, 1,01
79, -187500,02, -22856,49, -187500,02, -187500,02, -187500,02, -187500,02, -187500,02, -187500,02, 0,00, 0,00, 0,00, 0,00, 0,00, 0,00, 0,00, 0,00, -0,02, 0,00, 1,01
80, -187500,02, -22784,34, -187500,02, -187500,02, -187500,02, -187500,02, -187500,02, -187500,02, 0,00, 0,00, 0,00, 0,00, 0,00, 0,00, 0,00, 0,00, -0,02, 0,00, 1,01
81, -187500,02, -22311,78, -187500,02, -187500,02, -187500,02, -187500,02, -187500,02, -187500,02, 0,00, 0,00, 0,00, 0,00, 0,00, 0,00, 0,00, 0,00, -0,02, 0,00, 1,01
82, -187500,02, -22094,50, -187500,02, -187500,02, -187500,02, -187500,02, -187500,02, -187500,02, 0,00, 0,00, 0,00, 0,00, 0,00, 0,00, 0,00, 0,00, -0,02, 0,00, 1,01
83, -187500,02, -22457,20, -187500,02, -187500,02, -187500,02, -187500,02, -187500,02, -187500,02, 0,00, 0,00, 0,00, 0,00, 0,00, 0,00, 0,00, 0,00, -0,02, 0,00, 1,01
84, -187500,02, -22916,66, -187500,02, -187500,02, -187500,02, -187500,02, -187500,02, -187500,02, 0,00, 0,00, 0,00, 0,00, 0,00, 0,00, 0,00, 0,00, -0,02, 0,00, 1,01
85, -187500,02, -22872,67, -187500,02, -187500,02, -187500,02, -187500,02, -187500,02, -187500,02, 0,00, 0,00, 0,00, 0,00, 0,00, 0,00, 0,00, 0,00, -0,02, 0,00, 1,01
86, -187500,02, -22394,50, -187500,02, -187500,02, -187500,02, -187500,02, -187500,02, -187500,02, 0,00, 0,00, 0,00, 0,00, 0,00, 0,00, 0,00, 0,00, -0,02, 0,00, 1,01
87, -187500,02, -22166,87, -187500,02, -187500,02, -187500,02, -187500,02, -187500,02, -187500,02, 0,00, 0,00, 0,00, 0,00, 0,00, 0,00, 0,00, 0,00, -0,02, 0,00, 1,01
88, -187500,02, -22535,56, -187500,02, -187500,02, -187500,02, -187500,02, -187500,02, -187500,02, 0,00, 0,00, 0,00, 0,00, 0,00, 0,00, 0,00, 0,00, -0,03, -0,00, 1,01
89, -187500,02, -22979,11, -187500,02, -187500,02, -187500,02, -187500,02, -187500,02, -187500,02, 0,00, 0,00, 0,00, 0,00, 0,00, 0,00, 0,00, 0,00, -0,03, -0,00, 1,01
90, -187500,02, -22922,74, -187500,02, -187500,02, -187500,02, -187500,02, -187500,02, -187500,02, 0,00, 0,00, 0,00, 0,00, 0,00, 0,00, 0,00, 0,00, -0,03, -0,00, 1,01
91, -187500,02, -22430,04, -187500,02, -187500,02, -187500,02, -187500,02, -187500,02, -187500,02, 0,00, 0,00, 0,00, 0,00, 0,00, 0,00, 0,00, 0,00, -0,03, -0,00, 1,01
92, -187500,02, -22184,13, -187500,02, -187500,02, -187500,02, -187500,02, -187500,02, -187500,02, 0,00, 0,00, 0,00, 0,00, 0,00, 0,00, 0,00, 0,00, -0,03, -0,00, 1,01
93, -187500,02, -22552,37, -187500,02, -187500,02, -187500,02, -187500,02, -187500,02, -187500,02, 0,00, 0,00, 0,00, 0,00, 0,00, 0,00, 0,00, 0,00, -0,02, 0,00, 1,01
94, -187500,02, -23042,01, -187500,02, -187500,02, -187500,02, -187500,02, -187500,02, -187500,02, 0,00, 0,00, 0,00, 0,00, 0,00, 0,00, 0,00, 0,00, -0,02, 0,00, 1,01
95, -187500,02, -23000,32, -187500,02, -187500,02, -187500,02, -187500,02, -187500,02, -187500,02, 0,00, 0,00, 0,00, 0,00, 0,00, 0,00, 0,00, 0,00, -0,02, 0,00, 1,01
96, -187500,02, -22510,62, -187500,02, -187500,02, -187500,02, -187500,02, -187500,02, -187500,02, 0,00, 0,00, 0,00, 0,00, 0,00, 0,00, 0,00, 0,00, -0,02, 0,00, 1,01
97, -187500,02, -22262,94, -187500,02, -187500,02, -187500,02, -187500,02, -187500,02, -187500,02, 0,00, 0,00, 0,00, 0,00, 0,00, 0,00, 0,00, 0,00, -0,02, 0,00, 1,01
98, -187500,02, -22626,71, -187500,02, -187500,02, -187500,02, -187500,02, -187500,02, -187500,02, 0,00, 0,00, 0,00, 0,00, 0,00, 0,00, 0,00, 0,00, -0,02, 0,00, 1,01
99, -187500,02, -23090,02, -187500,02, -187500,02, -187500,02, -187500,02, -187500,02, -187500,02, 0,00, 0,00, 0,00, 0,00, 0,00, 0,00, 0,00, 0,00, -0,02, 0,00, 1,01
100, -187500,02, -23000,19, -187500,02, -187500,02, -187500,02, -187500,02, -187500,02, -187500,02, 0,00, 0,00, 0,00, 0,00, 0,00, 0,00, 0,00, 0,00, -0,02, 0,00, 1,01
101, -187500,02, -22536,86, -187500,02, -187500,02, -187500,02, -187500,02, -187500,02, -187500,02, 0,00, 0,00, 0,00, 0,00, 0,00, 0,00, 0,00, 0,00, -0,02, 0,00, 1,01
102, -187500,02, -22273,65, -187500,02, -187500,02, -187500,02, -187500,02, -187500,02, -187500,02, 0,00, 0,00, 0,00, 0,00, 0,00, 0,00, 0,00, 0,00, -0,02, 0,00, 1,01
103, -187500,02, -22685,39, -187500,02, -187500,02, -187500,02, -187500,02, -187500,02, -187500,02, 0,00, 0,00, 0,00, 0,00, 0,00, 0,00, 0,00, 0,00, -0,02, -0,00, 1,01
104, -187500,02, -23180,14, -187500,02, -187500,02, -187500,02, -187500,02, -187500,02, -187500,02, 0,00, 0,00, 0,00, 0,00, 0,00, 0,00, 0,00, 0,00, -0,02, -0,00, 1,01
105, -187500,02, -23112,71, -187500,02, -187500,02, -187500,02, -187500,02, -187500,02, -187500,02, 0,00, 0,00, 0,00, 0,00, 0,00, 0,00, 0,00, 0,00, -0,02, -0,00, 1,01
106, -187500,02, -22613,68, -187500,02, -187500,02, -187500,02, -187500,02, -187500,02, -187500,02, 0,00, 0,00, 0,00, 0,00, 0,00, 0,00, 0,00, 0,00, -0,02, -0,00, 1,01
107, -187500,02, -22358,18, -187500,02, -187500,02, -187500,02, -187500,02, -187500,02, -187500,02, 0,00, 0,00, 0,00, 0,00, 0,00, 0,00, 0,00, 0,00, -0,02, -0,00, 1,01
108, -187500,02, -22682,68, -187500,02, -187500,02, -187500,02, -187500,02, -187500,02, -187500,02, 0,00, 0,00, 0,00, 0,00, 0,00, 0,00, 0,00, 0,00, -0,02, 0,00, 1,01
109, -187500,02, -23140,47, -187500,02, -187500,02, -187500,02, -187500,02, -187500,02, -187500,02, 0,00, 0,00, 0,00, 0,00, 0,00, 0,00, 0,00, 0,00, -0,02, 0,00, 1,01
110, -187500,02, -23124,11, -187500,02, -187500,02, -187500,02, -187500,02, -187500,02, -187500,02, 0,00, 0,00, 0,00, 0,00, 0,00, 0,00, 0,00, 0,00, -0,02, 0,00, 1,01
111, -187500,02, -22648,35, -187500,02, -187500,02, -187500,02, -187500,02, -187500,02, -187500,02, 0,00, 0,00, 0,00, 0,00, 0,00, 0,00, 0,00, 0,00, -0,02, 0,00, 1,01
112, -187500,02, -22380,26, -187500,02, -187500,02, -187500,02, -187500,02, -187500,02, -187500,02, 0,00, 0,00, 0,00, 0,00, 0,00, 0,00, 0,00, 0,00, -0,02, 0,00, 1,01
113, -187500,02, -22728,97, -187500,02, -187500,02, -187500,02, -187500,02, -187500,02, -187500,02, 0,00, 0,00, 0,00, 0,00, 0,00, 0,00, 0,00, 0,00, -0,02, 0,00, 1,01
114, -187500,02, -23237,25, -187500,02, -187500,02, -187500,02, -187500,02, -187500,02, -187500,02, 0,00, 0,00, 0,00, 0,00, 0,00, 0,00, 0,00, 0,00, -0,02, 0,00, 1,01
115, -187500,02, -23223,42, -187500,02, -187500,02, -187500,02, -187500,02, -187500,02, -187500,02, 0,00, 0,00, 0,00, 0,00, 0,00, 0,00, 0,00, 0,00, -0,02, 0,00, 1,01
116, -187500,02, -22722,58, -187500,02, -187500,02, -187500,02, -187500,02, -187500,02, -187500,02, 0,00, 0,00, 0,00, 0,00, 0,00, 0,00, 0,00, 0,00, -0,02, 0,00, 1,01
117, -187500,02, -22452,97, -187500,02, -187500,02, -187500,02, -187500,02, -187500,02, -187500,02, 0,00, 0,00, 0,00, 0,00, 0,00, 0,00, 0,00, 0,00, -0,02, 0,00, 1,01
118, -187500,02, -22778,37, -187500,02, -187500,02, -187500,02, -187500,02, -187500,02, -187500,02, 0,00, 0,00, 0,00, 0,00, 0,00, 0,00, 0,00, 0,00, -0,01, -0,00, 1,01
119, -187500,02, -23263,22, -187500,02, -187500,02, -187500,02, -187500,02, -187500,02, -187500,02, 0,00, 0,00, 0,00, 0,00, 0,00, 0,00, 0,00, 0,00, -0,01, -0,00, 1,01
120, -187500,02, -23243,51, -187500,02, -187500,02, -187500,02, -187500,02, -187500,02, -187500,02, 0,00, 0,00, 0,00, 0,00, 0,00, 0,00, 0,00, 0,00, -0,01, -0,00, 1,01
121, -187500,02, -22764,51, -187500,02, -187500,02, -187500,02, -187500,02, -187500,02, -187500,02, 0,00, 0,00, 0,00, 0,00, 0,00, 0,00, 0,00, 0,00, -0,01, -0,00, 1,01
122, -187500,02, -22510,84, -187500,02, -187500,02, -187500,02, -187500,02, -187500,02, -187500,02, 0,00, 0,00, 0,00, 0,00, 0,00, 0,00, 0,00, 0,00, -0,01, -0,00, 1,01
123, -187500,02, -22821,58, -187500,02, -187500,02, -187500,02, -187500,02, -187500,02, -187500,02, 0,00, 0,00, 0,00, 0,00, 0,00, 0,00, 0,00, 0,00, -0,01, 0,00, 1,01
124, -187500,02, -23340,67, -187500,02, -187500,02, -187500,02, -187500,02, -187500,02, -187500,02, 0,00, 0,00, 0,00, 0,00, 0,00, 0,00, 0,00, 0,00, -0,01, 0,00, 1,01
125, -187500,02, -23291,99, -187500,02, -187500,02, -187500,02, -187500,02, -187500,02, -187500,02, 0,00, 0,00, 0,00, 0,00, 0,00, 0,00, 0,00, 0,00, -0,01, 0,00, 1,01
126, -187500,02, -22819,21, -187500,02, -187500,02, -187500,02, -187500,02, -187500,02, -187500,02, 0,00, 0,00, 0,00, 0,00, 0,00, 0,00, 0,00, 0,00, -0,01, 0,00, 1,01
127, -187500,02, -22569,79, -187500,02, -187500,02, -187500,02, -187500,02, -187500,02, -187500,02, 0,00, 0,00, 0,00, 0,00, 0,00, 0,00, 0,00, 0,00, -0,01, 0,00, 1,01
128, -187500,02, -22887,16, -187500,02, -187500,02, -187500,02, -187500,02, -187500,02, -187500,02, 0,00, 0,00, 0,00, 0,00, 0,00, 0,00, 0,00, 0,00, -0,01, 0,00, 1,02
129, -187500,02, -23351,31, -187500,02, -187500,02, -187500,02, -187500,02, -187500,02, -187500,02, 0,00, 0,00, 0,00, 0,00, 0,00, 0,00, 0,00, 0,00, -0,01, 0,00, 1,02
130, -187500,02, -23334,42, -187500,02, -187500,02, -187500,02, -187500,02, -187500,02, -187500,02, 0,00, 0,00, 0,00, 0,00, 0,00, 0,00, 0,00, 0,00, -0,01, 0,00, 1,02
131, -187500,02, -22834,00, -187500,02, -187500,02, -187500,02, -187500,02, -187500,02, -187500,02, 0,00, 0,00, 0,00, 0,00, 0,00, 0,00, 0,00, 0,00, -0,01, 0,00, 1,02
132, -187500,02, -22572,29, -187500,02, -187500,02, -187500,02, -187500,02, -187500,02, -187500,02, 0,00, 0,00, 0,00, 0,00, 0,00, 0,00, 0,00, 0,00, -0,01, 0,00, 1,02
133, -187500,02, -22965,23, -187500,02, -187500,02, -187500,02, -187500,02, -187500,02, -187500,02, 0,00, 0,00, 0,00, 0,00, 0,00, 0,00, 0,00, 0,00, -0,02, 0,00, 1,02
134, -187500,02, -23433,79, -187500,02, -187500,02, -187500,02, -187500,02, -187500,02, -187500,02, 0,00, 0,00, 0,00, 0,00, 0,00, 0,00, 0,00, 0,00, -0,02, 0,00, 1,02
135, -187500,02, -23437,17, -187500,02, -187500,02, -187500,02, -187500,02, -187500,02, -187500,02, 0,00, 0,00, 0,00, 0,00, 0,00, 0,00, 0,00, 0,00, -0,02, 0,00, 1,02
136, -187500,02, -23002,02, -187500,02, -187500,02, -187500,02, -187500,02, -187500,02, -187500,02, 0,00, 0,00, 0,00, 0,00, 0,00, 0,00, 0,00, 0,00, -0,02, 0,00, 1,02
137, -187500,02, -22701,12, -187500,02, -187500,02, -187500,02, -187500,02, -187500,02, -187500,02, 0,00, 0,00, 0,00, 0,00, 0,00, 0,00, 0,00, 0,00, -0,02, 0,00, 1,02
138, -187500,02, -23015,01, -187500,02, -187500,02, -187500,02, -187500,02, -187500,02, -187500,02, 0,00, 0,00, 0,00, 0,00, 0,00, 0,00, 0,00, 0,00, -0,02, 0,01, 1,01
139, -187500,02, -23479,48, -187500,02, -187500,02, -187500,02, -187500,02, -187500,02, -187500,02, 0,00, 0,00, 0,00, 0,00, 0,00, 0,00, 0,00, 0,00, -0,02, 0,01, 1,01
140, -187500,02, -23483,95, -187500,02, -187500,02, -187500,02, -187500,02, -187500,02, -187500,02, 0,00, 0,00, 0,00, 0,00, 0,00, 0,00, 0,00, 0,00, -0,02, 0,01, 1,01
141, -187500,02, -23018,85, -187500,02, -187500,02, -187500,02, -187500,02, -187500,02, -187500,02, 0,00, 0,00, 0,00, 0,00, 0,00, 0,00, 0,00, 0,00, -0,02, 0,01, 1,01
142, -187500,02, -22737,67, -187500,02, -187500,02, -187500,02, -187500,02, -187500,02, -187500,02, 0,00, 0,00, 0,00, 0,00, 0,00, 0,00, 0,00, 0,00, -0,02, 0,01, 1,01
143, -187500,02, -23056,40, -187500,02, -187500,02, -187500,02, -187500,02, -187500,02, -187500,02, 0,00, 0,00, 0,00, 0,00, 0,00, 0,00, 0,00, 0,00, -0,02, 0,01, 1,02
144, -187500,02, -23543,34, -187500,02, -187500,02, -187500,02, -187500,02, -187500,02, -187500,02, 0,00, 0,00, 0,00, 0,00, 0,00, 0,00, 0,00, 0,00, -0,02, 0,01, 1,02
145, -187500,02, -23552,01, -187500,02, -187500,02, -187500,02, -187500,02, -187500,02, -187500,02, 0,00, 0,00, 0,00, 0,00, 0,00, 0,00, 0,00, 0,00, -0,02, 0,01, 1,02
146, -187500,02, -23051,69, -187500,02, -187500,02, -187500,02, -187500,02, -187500,02, -187500,02, 0,00, 0,00, 0,00, 0,00, 0,00, 0,00, 0,00, 0,00, -0,02, 0,01, 1,02
147, -187500,02, -22784,16, -187500,02, -187500,02, -187500,02, -187500,02, -187500,02, -187500,02, 0,00, 0,00, 0,00, 0,00, 0,00, 0,00, 0,00, 0,00, -0,02, 0,01, 1,02
148, -187500,02, -23084,48, -187500,02, -187500,02, -187500,02, -187500,02, -187500,02, -187500,02, 0,00, 0,00, 0,00, 0,00, 0,00, 0,00, 0,00, 0,00, -0,02, 0,01, 1,01
149, -187500,02, -23564,42, -187500,02, -187500,02, -187500,02, -187500,02, -187500,02, -187500,02, 0,00, 0,00, 0,00, 0,00, 0,00, 0,00, 0,00, 0,00, -0,02, 0,01, 1,01
150, -187500,02, -23556,37, -187500,02, -187500,02, -187500,02, -187500,02, -187500,02, -187500,02, 0,00, 0,00, 0,00, 0,00, 0,00, 0,00, 0,00, 0,00, -0,02, 0,01, 1,01
151, -187500,02, -23124,02, -187500,02, -187500,02, -187500,02, -187500,02, -187500,02, -187500,02, 0,00, 0,00, 0,00, 0,00, 0,00, 0,00, 0,00, 0,00, -0,02, 0,01, 1,01
152, -187500,02, -22839,82, -187500,02, -187500,02, -187500,02, -187500,02, -187500,02, -187500,02, 0,00, 0,00, 0,00, 0,00, 0,00, 0,00, 0,00, 0,00, -0,02, 0,01, 1,01
153, -187500,02, -23136,04, -187500,02, -187500,02, -187500,02, -187500,02, -187500,02, -187500,02, 0,00, 0,00, 0,00, 0,00, 0,00, 0,00, 0,00, 0,00, -0,02, 0,00, 1,01
154, -187500,02, -23605,72, -187500,02, -187500,02, -187500,02, -187500,02, -187500,02, -187500,02, 0,00, 0,00, 0,00, 0,00, 0,00, 0,00, 0,00, 0,00, -0,02, 0,00, 1,01
155, -187500,02, -23621,93, -187500,02, -187500,02, -187500,02, -187500,02, -187500,02, -187500,02, 0,00, 0,00, 0,00, 0,00, 0,00, 0,00, 0,00, 0,00, -0,02, 0,00, 1,01
156, -187500,02, -23183,81, -187500,02, -187500,02, -187500,02, -187500,02, -187500,02, -187500,02, 0,00, 0,00, 0,00, 0,00, 0,00, 0,00, 0,00, 0,00, -0,02, 0,00, 1,01
157, -187500,02, -22875,24, -187500,02, -187500,02, -187500,02, -187500,02, -187500,02, -187500,02, 0,00, 0,00, 0,00, 0,00, 0,00, 0,00, 0,00, 0,00, -0,02, 0,00, 1,01
158, -187500,02, -23161,93, -187500,02, -187500,02, -187500,02, -187500,02, -187500,02, -187500,02, 0,00, 0,00, 0,00, 0,00, 0,00, 0,00, 0,00, 0,00, -0,02, 0,00, 1,01
159, -187500,02, -23654,11, -187500,02, -187500,02, -187500,02, -187500,02, -187500,02, -187500,02, 0,00, 0,00, 0,00, 0,00, 0,00, 0,00, 0,00, 0,00, -0,02, 0,00, 1,01
160, -187500,02, -23692,65, -187500,02, -187500,02, -187500,02, -187500,02, -187500,02, -187500,02, 0,00, 0,00, 0,00, 0,00, 0,00, 0,00, 0,00, 0,00, -0,02, 0,00, 1,01
161, -187500,02, -23225,65, -187500,02, -187500,02, -187500,02, -187500,02, -187500,02, -187500,02, 0,00, 0,00, 0,00, 0,00, 0,00, 0,00, 0,00, 0,00, -0,02, 0,00, 1,01
162, -187500,02, -22910,43, -187500,02, -187500,02, -187500,02, -187500,02, -187500,02, -187500,02, 0,00, 0,00, 0,00, 0,00, 0,00, 0,00, 0,00, 0,00, -0,02, 0,00, 1,01
163, -187500,02, -23208,38, -187500,02, -187500,02, -187500,02, -187500,02, -187500,02, -187500,02, 0,00, 0,00, 0,00, 0,00, 0,00, 0,00, 0,00, 0,00, -0,02, 0,00, 1,01
164, -187500,02, -23707,58, -187500,02, -187500,02, -187500,02, -187500,02, -187500,02, -187500,02, 0,00, 0,00, 0,00, 0,00, 0,00, 0,00, 0,00, 0,00, -0,02, 0,00, 1,01
165, -187500,02, -23743,10, -187500,02, -187500,02, -187500,02, -187500,02, -187500,02, -187500,02, 0,00, 0,00, 0,00, 0,00, 0,00, 0,00, 0,00, 0,00, -0,02, 0,00, 1,01
166, -187500,02, -23267,18, -187500,02, -187500,02, -187500,02, -187500,02, -187500,02, -187500,02, 0,00, 0,00, 0,00, 0,00, 0,00, 0,00, 0,00, 0,00, -0,02, 0,00, 1,01
167, -187500,02, -22943,66, -187500,02, -187500,02, -187500,02, -187500,02, -187500,02, -187500,02, 0,00, 0,00, 0,00, 0,00, 0,00, 0,00, 0,00, 0,00, -0,02, 0,00, 1,01
168, -187500,02, -23238,28, -187500,02, -187500,02, -187500,02, -187500,02, -187500,02, -187500,02, 0,00, 0,00, 0,00, 0,00, 0,00, 0,00, 0,00, 0,00, -0,02, 0,00, 1,01
169, -187500,02, -23785,41, -187500,02, -187500,02, -187500,02, -187500,02, -187500,02, -187500,02, 0,00, 0,00, 0,00, 0,00, 0,00, 0,00, 0,00, 0,00, -0,02, 0,00, 1,01
170, -187500,02, -23808,88, -187500,02, -187500,02, -187500,02, -187500,02, -187500,02, -187500,02, 0,00, 0,00, 0,00, 0,00, 0,00, 0,00, 0,00, 0,00, -0,02, 0,00, 1,01
171, -187500,02, -23322,32, -187500,02, -187500,02, -187500,02, -187500,02, -187500,02, -187500,02, 0,00, 0,00, 0,00, 0,00, 0,00, 0,00, 0,00, 0,00, -0,02, 0,00, 1,01
172, -187500,02, -22987,99, -187500,02, -187500,02, -187500,02, -187500,02, -187500,02, -187500,02, 0,00, 0,00, 0,00, 0,00, 0,00, 0,00, 0,00, 0,00, -0,02, 0,00, 1,01
173, -187500,02, -23302,25, -187500,02, -187500,02, -187500,02, -187500,02, -187500,02, -187500,02, 0,00, 0,00, 0,00, 0,00, 0,00, 0,00, 0,00, 0,00, -0,02, 0,00, 1,01
174, -187500,02, -23815,96, -187500,02, -187500,02, -187500,02, -187500,02, -187500,02, -187500,02, 0,00, 0,00, 0,00, 0,00, 0,00, 0,00, 0,00, 0,00, -0,02, 0,00, 1,01
175, -187500,02, -23878,28, -187500,02, -187500,02, -187500,02, -187500,02, -187500,02, -187500,02, 0,00, 0,00, 0,00, 0,00, 0,00, 0,00, 0,00, 0,00, -0,02, 0,00, 1,01
176, -187500,02, -23381,53, -187500,02, -187500,02, -187500,02, -187500,02, -187500,02, -187500,02, 0,00, 0,00, 0,00, 0,00, 0,00, 0,00, 0,00, 0,00, -0,02, 0,00, 1,01
177, -187500,02, -23068,36, -187500,02, -187500,02, -187500,02, -187500,02, -187500,02, -187500,02, 0,00, 0,00, 0,00, 0,00, 0,00, 0,00, 0,00, 0,00, -0,02, 0,00, 1,01
178, -187500,02, -23346,26, -187500,02, -187500,02, -187500,02, -187500,02, -187500,02, -187500,02, 0,00, 0,00, 0,00, 0,00, 0,00, 0,00, 0,00, 0,00, -0,02, 0,00, 1,01
179, -187500,02, -23869,79, -187500,02, -187500,02, -187500,02, -187500,02, -187500,02, -187500,02, 0,00, 0,00, 0,00, 0,00, 0,00, 0,00, 0,00, 0,00, -0,02, 0,00, 1,01
180, -187500,02, -23906,02, -187500,02, -187500,02, -187500,02, -187500,02, -187500,02, -187500,02, 0,00, 0,00, 0,00, 0,00, 0,00, 0,00, 0,00, 0,00, -0,02, 0,00, 1,01
181, -187500,02, -23449,71, -187500,02, -187500,02, -187500,02, -187500,02, -187500,02, -187500,02, 0,00, 0,00, 0,00, 0,00, 0,00, 0,00, 0,00, 0,00, -0,02, 0,00, 1,01
182, -187500,02, -23142,82, -187500,02, -187500,02, -187500,02, -187500,02, -187500,02, -187500,02, 0,00, 0,00, 0,00, 0,00, 0,00, 0,00, 0,00, 0,00, -0,02, 0,00, 1,01
183, -187500,02, -23369,29, -187500,02, -187500,02, -187500,02, -187500,02, -187500,02, -187500,02, 0,00, 0,00, 0,00, 0,00, 0,00, 0,00, 0,00, 0,00, -0,02, 0,01, 1,01
184, -187500,02, -23870,52, -187500,02, -187500,02, -187500,02, -187500,02, -187500,02, -187500,02, 0,00, 0,00, 0,00, 0,00, 0,00, 0,00, 0,00, 0,00, -0,02, 0,01, 1,01
185, -187500,02, -23975,29, -187500,02, -187500,02, -187500,02, -187500,02, -187500,02, -187500,02, 0,00, 0,00, 0,00, 0,00, 0,00, 0,00, 0,00, 0,00, -0,02, 0,01, 1,01
186, -187500,02, -23523,13, -187500,02, -187500,02, -187500,02, -187500,02, -187500,02, -187500,02, 0,00, 0,00, 0,00, 0,00, 0,00, 0,00, 0,00, 0,00, -0,02, 0,01, 1,01
187, -187500,02, -23187,74, -187500,02, -187500,02, -187500,02, -187500,02, -187500,02, -187500,02, 0,00, 0,00, 0,00, 0,00, 0,00, 0,00, 0,00, 0,00, -0,02, 0,01, 1,01
188, -187500,02, -23456,88, -187500,02, -187500,02, -187500,02, -187500,02, -187500,02, -187500,02, 0,00, 0,00, 0,00, 0,00, 0,00, 0,00, 0,00, 0,00, -0,02, 0,00, 1,02
189, -187500,02, -23954,30, -187500,02, -187500,02, -187500,02, -187500,02, -187500,02, -187500,02, 0,00, 0,00, 0,00, 0,00, 0,00, 0,00, 0,00, 0,00, -0,02, 0,00, 1,02
190, -187500,02, -24000,61, -187500,02, -187500,02, -187500,02, -187500,02, -187500,02, -187500,02, 0,00, 0,00, 0,00, 0,00, 0,00, 0,00, 0,00, 0,00, -0,02, 0,00, 1,02
191, -187500,02, -23525,70, -187500,02, -187500,02, -187500,02, -187500,02, -187500,02, -187500,02, 0,00, 0,00, 0,00, 0,00, 0,00, 0,00, 0,00, 0,00, -0,02, 0,00, 1,02
192, -187500,02, -23204,37, -187500,02, -187500,02, -187500,02, -187500,02, -187500,02, -187500,02, 0,00, 0,00, 0,00, 0,00, 0,00, 0,00, 0,00, 0,00, -0,02, 0,00, 1,02
193, -187500,02, -23467,19, -187500,02, -187500,02, -187500,02, -187500,02, -187500,02, -187500,02, 0,00, 0,00, 0,00, 0,00, 0,00, 0,00, 0,00, 0,00, -0,01, 0,00, 1,02
194, -187500,02, -23980,43, -187500,02, -187500,02, -187500,02, -187500,02, -187500,02, -187500,02, 0,00, 0,00, 0,00, 0,00, 0,00, 0,00, 0,00, 0,00, -0,01, 0,00, 1,02
195, -187500,02, -24060,22, -187500,02, -187500,02, -187500,02, -187500,02, -187500,02, -187500,02, 0,00, 0,00, 0,00, 0,00, 0,00, 0,00, 0,00, 0,00, -0,01, 0,00, 1,02
196, -187500,02, -23622,24, -187500,02, -187500,02, -187500,02, -187500,02, -187500,02, -187500,02, 0,00, 0,00, 0,00, 0,00, 0,00, 0,00, 0,00, 0,00, -0,01, 0,00, 1,02
197, -187500,02, -23286,29, -187500,02, -187500,02, -187500,02, -187500,02, -187500,02, -187500,02, 0,00, 0,00, 0,00, 0,00, 0,00, 0,00, 0,00, 0,00, -0,01, 0,00, 1,02
198, -187500,02, -23500,00, -187500,02, -187500,02, -187500,02, -187500,02, -187500,02, -187500,02, 0,00, 0,00, 0,00, 0,00, 0,00, 0,00, 0,00, 0,00, -0,01, 0,00, 1,02
199, -187500,02, -24031,83, -187500,02, -187500,02, -187500,02, -187500,02, -187500,02, -187500,02, 0,00, 0,00, 0,00, 0,00, 0,00, 0,00, 0,00, 0,00, -0,01, 0,00, 1,02
200, -187500,02, -24120,93, -187500,02, -187500,02, -187500,02, -187500,02, -187500,02, -187500,02, 0,00, 0,00, 0,00, 0,00, 0,00, 0,00, 0,00, 0,00, -0,01, 0,00, 1,02
201, -187500,02, -23666,05, -187500,02, -187500,02, -187500,02, -187500,02, -187500,02, -187500,02, 0,00, 0,00, 0,00, 0,00, 0,00, 0,00, 0,00, 0,00, -0,01, 0,00, 1,02
202, -187500,02, -23321,45, -187500,02, -187500,02, -187500,02, -187500,02, -187500,02, -187500,02, 0,00, 0,00, 0,00, 0,00, 0,00, 0,00, 0,00, 0,00, -0,01, 0,00, 1,02
203, -187500,02, -23570,94, -187500,02, -187500,02, -187500,02, -187500,02, -187500,02, -187500,02, 0,00, 0,00, 0,00, 0,00, 0,00, 0,00, 0,00, 0,00, -0,01, 0,00, 1,02
204, -187500,02, -24057,94, -187500,02, -187500,02, -187500,02, -187500,02, -187500,02, -187500,02, 0,00, 0,00, 0,00, 0,00, 0,00, 0,00, 0,00, 0,00, -0,01, 0,00, 1,02
205, -187500,02, -24152,69, -187500,02, -187500,02, -187500,02, -187500,02, -187500,02, -187500,02, 0,00, 0,00, 0,00, 0,00, 0,00, 0,00, 0,00, 0,00, -0,01, 0,00, 1,02
206, -187500,02, -23712,25, -187500,02, -187500,02, -187500,02, -187500,02, -187500,02, -187500,02, 0,00, 0,00, 0,00, 0,00, 0,00, 0,00, 0,00, 0,00, -0,01, 0,00, 1,02
207, -187500,02, -23362,69, -187500,02, -187500,02, -187500,02, -187500,02, -187500,02, -187500,02, 0,00, 0,00, 0,00, 0,00, 0,00, 0,00, 0,00, 0,00, -0,01, 0,00, 1,02
208, -187500,02, -23619,74, -187500,02, -187500,02, -187500,02, -187500,02, -187500,02, -187500,02, 0,00, 0,00, 0,00, 0,00, 0,00, 0,00, 0,00, 0,00, -0,02, 0,00, 1,02
209, -187500,02, -24149,94, -187500,02, -187500,02, -187500,02, -187500,02, -187500,02, -187500,02, 0,00, 0,00, 0,00, 0,00, 0,00, 0,00, 0,00, 0,00, -0,02, 0,00, 1,02
210, -187500,02, -24200,72, -187500,02, -187500,02, -187500,02, -187500,02, -187500,02, -187500,02, 0,00, 0,00, 0,00, 0,00, 0,00, 0,00, 0,00, 0,00, -0,02, 0,00, 1,02
211, -187500,02, -23754,12, -187500,02, -187500,02, -187500,02, -187500,02, -187500,02, -187500,02, 0,00, 0,00, 0,00, 0,00, 0,00, 0,00, 0,00, 0,00, -0,02, 0,00, 1,02
212, -187500,02, -23406,81, -187500,02, -187500,02, -187500,02, -187500,02, -187500,02, -187500,02, 0,00, 0,00, 0,00, 0,00, 0,00, 0,00, 0,00, 0,00, -0,02, 0,00, 1,02
213, -187500,02, -23670,77, -187500,02, -187500,02, -187500,02, -187500,02, -187500,02, -187500,02, 0,00, 0,00, 0,00, 0,00, 0,00, 0,00, 0,00, 0,00, -0,02, 0,01, 1,02
214, -187500,02, -24209,89, -187500,02, -187500,02, -187500,02, -187500,02, -187500,02, -187500,02, 0,00, 0,00, 0,00, 0,00, 0,00, 0,00, 0,00, 0,00, -0,02, 0,01, 1,02
215, -187500,02, -24280,39, -187500,02, -187500,02, -187500,02, -187500,02, -187500,02, -187500,02, 0,00, 0,00, 0,00, 0,00, 0,00, 0,00, 0,00, 0,00, -0,02, 0,01, 1,02
216, -187500,02, -23835,77, -187500,02, -187500,02, -187500,02, -187500,02, -187500,02, -187500,02, 0,00, 0,00, 0,00, 0,00, 0,00, 0,00, 0,00, 0,00, -0,02, 0,01, 1,02
217, -187500,02, -23528,96, -187500,02, -187500,02, -187500,02, -187500,02, -187500,02, -187500,02, 0,00, 0,00, 0,00, 0,00, 0,00, 0,00, 0,00, 0,00, -0,02, 0,01, 1,02
218, -187500,02, -23812,88, -187500,02, -187500,02, -187500,02, -187500,02, -187500,02, -187500,02, 0,00, 0,00, 0,00, 0,00, 0,00, 0,00, 0,00, 0,00, -0,02, 0,01, 1,02
219, -187500,02, -24368,23, -187500,02, -187500,02, -187500,02, -187500,02, -187500,02, -187500,02, 0,00, 0,00, 0,00, 0,00, 0,00, 0,00, 0,00, 0,00, -0,02, 0,01, 1,02
220, -187500,02, -24474,42, -187500,02, -187500,02, -187500,02, -187500,02, -187500,02, -187500,02, 0,00, 0,00, 0,00, 0,00, 0,00, 0,00, 0,00, 0,00, -0,02, 0,01, 1,02
221, -187500,02, -24014,38, -187500,02, -187500,02, -187500,02, -187500,02, -187500,02, -187500,02, 0,00, 0,00, 0,00, 0,00, 0,00, 0,00, 0,00, 0,00, -0,02, 0,01, 1,02
222, -187500,02, -23656,64, -187500,02, -187500,02, -187500,02, -187500,02, -187500,02, -187500,02, 0,00, 0,00, 0,00, 0,00, 0,00, 0,00, 0,00, 0,00, -0,02, 0,01, 1,02
223, -187500,02, -23861,07, -187500,02, -187500,02, -187500,02, -187500,02, -187500,02, -187500,02, 0,00, 0,00, 0,00, 0,00, 0,00, 0,00, 0,00, 0,00, -0,02, 0,01, 1,02
224, -187500,02, -24364,43, -187500,02, -187500,02, -187500,02, -187500,02, -187500,02, -187500,02, 0,00, 0,00, 0,00, 0,00, 0,00, 0,00, 0,00, 0,00, -0,02, 0,01, 1,02
225, -187500,02, -24457,10, -187500,02, -187500,02, -187500,02, -187500,02, -187500,02, -187500,02, 0,00, 0,00, 0,00, 0,00, 0,00, 0,00, 0,00, 0,00, -0,02, 0,01, 1,02
226, -187500,02, -24034,05, -187500,02, -187500,02, -187500,02, -187500,02, -187500,02, -187500,02, 0,00, 0,00, 0,00, 0,00, 0,00, 0,00, 0,00, 0,00, -0,02, 0,01, 1,02
227, -187500,02, -23645,78, -187500,02, -187500,02, -187500,02, -187500,02, -187500,02, -187500,02, 0,00, 0,00, 0,00, 0,00, 0,00, 0,00, 0,00, 0,00, -0,02, 0,01, 1,02
228, -187500,02, -23861,54, -187500,02, -187500,02, -187500,02, -187500,02, -187500,02, -187500,02, 0,00, 0,00, 0,00, 0,00, 0,00, 0,00, 0,00, 0,00, -0,02, 0,01, 1,02
229, -187500,02, -24391,14, -187500,02, -187500,02, -187500,02, -187500,02, -187500,02, -187500,02, 0,00, 0,00, 0,00, 0,00, 0,00, 0,00, 0,00, 0,00, -0,02, 0,01, 1,02
230, -187500,02, -24516,85, -187500,02, -187500,02, -187500,02, -187500,02, -187500,02, -187500,02, 0,00, 0,00, 0,00, 0,00, 0,00, 0,00, 0,00, 0,00, -0,02, 0,01, 1,02
231, -187500,02, -24069,36, -187500,02, -187500,02, -187500,02, -187500,02, -187500,02, -187500,02, 0,00, 0,00, 0,00, 0,00, 0,00, 0,00, 0,00, 0,00, -0,02, 0,01, 1,02
232, -187500,02, -23748,77, -187500,02, -187500,02, -187500,02, -187500,02, -187500,02, -187500,02, 0,00, 0,00, 0,00, 0,00, 0,00, 0,00, 0,00, 0,00, -0,02, 0,01, 1,02
233, -187500,02, -23972,69, -187500,02, -187500,02, -187500,02, -187500,02, -187500,02, -187500,02, 0,00, 0,00, 0,00, 0,00, 0,00, 0,00, 0,00, 0,00, -0,02, 0,00, 1,02
234, -187500,02, -24473,59, -187500,02, -187500,02, -187500,02, -187500,02, -187500,02, -187500,02, 0,00, 0,00, 0,00, 0,00, 0,00, 0,00, 0,00, 0,00, -0,02, 0,00, 1,02
235, -187500,02, -24594,16, -187500,02, -187500,02, -187500,02, -187500,02, -187500,02, -187500,02, 0,00, 0,00, 0,00, 0,00, 0,00, 0,00, 0,00, 0,00, -0,02, 0,00, 1,02
236, -187500,02, -24163,44, -187500,02, -187500,02, -187500,02, -187500,02, -187500,02, -187500,02, 0,00, 0,00, 0,00, 0,00, 0,00, 0,00, 0,00, 0,00, -0,02, 0,00, 1,02
237, -187500,02, -23808,32, -187500,02, -187500,02, -187500,02, -187500,02, -187500,02, -187500,02, 0,00, 0,00, 0,00, 0,00, 0,00, 0,00, 0,00, 0,00, -0,02, 0,00, 1,02
238, -187500,02, -24009,62, -187500,02, -187500,02, -187500,02, -187500,02, -187500,02, -187500,02, 0,00, 0,00, 0,00, 0,00, 0,00, 0,00, 0,00, 0,00, -0,02, 0,00, 1,01
239, -187500,02, -24534,19, -187500,02, -187500,02, -187500,02, -187500,02, -187500,02, -187500,02, 0,00, 0,00, 0,00, 0,00, 0,00, 0,00, 0,00, 0,00, -0,02, 0,00, 1,01
240, -187500,02, -24660,25, -187500,02, -187500,02, -187500,02, -187500,02, -187500,02, -187500,02, 0,00, 0,00, 0,00, 0,00, 0,00, 0,00, 0,00, 0,00, -0,02, 0,00, 1,01
241, -187500,02, -24208,82, -187500,02, -187500,02, -187500,02, -187500,02, -187500,02, -187500,02, 0,00, 0,00, 0,00, 0,00, 0,00, 0,00, 0,00, 0,00, -0,02, 0,00, 1,01
242, -187500,02, -23842,43, -187500,02, -187500,02, -187500,02, -187500,02, -187500,02, -187500,02, 0,00, 0,00, 0,00, 0,00, 0,00, 0,00, 0,00, 0,00, -0,02, 0,00, 1,01
243, -187500,02, -24034,07, -187500,02, -187500,02, -187500,02, -187500,02, -187500,02, -187500,02, 0,00, 0,00, 0,00, 0,00, 0,00, 0,00, 0,00, 0,00, -0,02, 0,00, 1,01
244, -187500,02, -24585,04, -187500,02, -187500,02, -187500,02, -187500,02, -187500,02, -187500,02, 0,00, 0,00, 0,00, 0,00, 0,00, 0,00, 0,00, 0,00, -0,02, 0,00, 1,01
245, -187500,02, -24776,15, -187500,02, -187500,02, -187500,02, -187500,02, -187500,02, -187500,02, 0,00, 0,00, 0,00, 0,00, 0,00, 0,00, 0,00, 0,00, -0,02, 0,00, 1,01
246, -187500,02, -24354,08, -187500,02, -187500,02, -187500,02, -187500,02, -187500,02, -187500,02, 0,00, 0,00, 0,00, 0,00, 0,00, 0,00, 0,00, 0,00, -0,02, 0,00, 1,01
247, -187500,02, -23957,02, -187500,02, -187500,02, -187500,02, -187500,02, -187500,02, -187500,02, 0,00, 0,00, 0,00, 0,00, 0,00, 0,00, 0,00, 0,00, -0,02, 0,00, 1,01
248, -187500,02, -24156,74, -187500,02, -187500,02, -187500,02, -187500,02, -187500,02, -187500,02, 0,00, 0,00, 0,00, 0,00, 0,00, 0,00, 0,00, 0,00, -0,02, 0,00, 1,02
249, -187500,02, -24673,29, -187500,02, -187500,02, -187500,02, -187500,02, -187500,02, -187500,02, 0,00, 0,00, 0,00, 0,00, 0,00, 0,00, 0,00, 0,00, -0,02, 0,00, 1,02
250, -187500,02, -24814,93, -187500,02, -187500,02, -187500,02, -187500,02, -187500,02, -187500,02, 0,00, 0,00, 0,00, 0,00, 0,00, 0,00, 0,00, 0,00, -0,02, 0,00, 1,02
251, -187500,02, -24379,92, -187500,02, -187500,02, -187500,02, -187500,02, -187500,02, -187500,02, 0,00, 0,00, 0,00, 0,00, 0,00, 0,00, 0,00, 0,00, -0,02, 0,00, 1,02
252, -187500,02, -23999,38, -187500,02, -187500,02, -187500,02, -187500,02, -187500,02, -187500,02, 0,00, 0,00, 0,00, 0,00, 0,00, 0,00, 0,00, 0,00, -0,02, 0,00, 1,02
253, -187500,02, -24162,06, -187500,02, -187500,02, -187500,02, -187500,02, -187500,02, -187500,02, 0,00, 0,00, 0,00, 0,00, 0,00, 0,00, 0,00, 0,00, -0,01, 0,00, 1,02
254, -187500,02, -24686,18, -187500,02, -187500,02, -187500,02, -187500,02, -187500,02, -187500,02, 0,00, 0,00, 0,00, 0,00, 0,00, 0,00, 0,00, 0,00, -0,01, 0,00, 1,02
255, -187500,02, -24874,27, -187500,02, -187500,02, -187500,02, -187500,02, -187500,02, -187500,02, 0,00, 0,00, 0,00, 0,00, 0,00, 0,00, 0,00, 0,00, -0,01, 0,00, 1,02
0, -187500,02, -24453,37, -187500,02, -187500,02, -187500,02, -187500,02, -187500,02, -187500,02, 0,00, 0,00, 0,00, 0,00, 0,00, 0,00, 0,00, 0,00, -0,01, 0,00, 1,02
1, -187500,02, -24051,91, -187500,02, -187500,02, -187500,02, -187500,02, -187500,02, -187500,02, 0,00, 0,00, 0,00, 0,00, 0,00, 0,00, 0,00, 0,00, -0,01, 0,00, 1,02
2, -187500,02, -24247,24, -187500,02, -187500,02, -187500,02, -187500,02, -187500,02, -187500,02, 0,00, 0,00, 0,00, 0,00, 0,00, 0,00, 0,00, 0,00, -0,01, 0,00, 1,02
3, -187500,02, -24762,36, -187500,02, -187500,02, -187500,02, -187500,02, -187500,02, -187500,02, 0,00, 0,00, 0,00, 0,00, 0,00, 0,00, 0,00, 0,00, -0,01, 0,00, 1,02
4, -187500,02, -24937,10, -187500,02, -187500,02, -187500,02, -187500,02, -187500,02, -187500,02, 0,00, 0,00, 0,00, 0,00, 0,00, 0,00, 0,00, 0,00, -0,01, 0,00, 1,02
5, -187500,02, -24530,17, -187500,02, -187500,02, -187500,02, -187500,02, -187500,02, -187500,02, 0,00, 0,00, 0,00, 0,00, 0,00, 0,00, 0,00, 0,00, -0,01, 0,00, 1,02
6, -187500,02, -24140,35, -187500,02, -187500,02, -187500,02, -187500,02, -187500,02, -187500,02, 0,00, 0,00, 0,00, 0,00, 0,00, 0,00, 0,00, 0,00, -0,01, 0,00, 1,02
7, -187500,02, -24307,32, -187500,02, -187500,02, -187500,02, -187500,02, -187500,02, -187500,02, 0,00, 0,00, 0,00, 0,00, 0,00, 0,00, 0,00, 0,00, -0,01, 0,01, 1,02
8, -187500,02, -24826,01, -187500,02, -187500,02, -187500,02, -187500,02, -187500,02, -187500,02, 0,00, 0,00, 0,00, 0,00, 0,00, 0,00, 0,00, 0,00, -0,01, 0,01, 1,02
9, -187500,02, -24997,86, -187500,02, -187500,02, -187500,02, -187500,02, -187500,02, -187500,02, 0,00, 0,00, 0,00, 0,00, 0,00, 0,00, 0,00, 0,00, -0,01, 0,01, 1,02
10, -187500,02, -24575,63, -187500,02, -187500,02, -187500,02, -187500,02, -187500,02, -187500,02, 0,00, 0,00, 0,00, 0,00, 0,00, 0,00, 0,00, 0,00, -0,01, 0,01, 1,02
11, -187500,02, -24172,88, -187500,02, -187500,02, -187500,02, -187500,02, -187500,02, -187500,02, 0,00, 0,00, 0,00, 0,00, 0,00, 0,00, 0,00, 0,00, -0,01, 0,01, 1,02
12, -187500,02, -24361,37, -187500,02, -187500,02, -187500,02, -187500,02, -187500,02, -187500,02, 0,00, 0,00, 0,00, 0,00, 0,00, 0,00, 0,00, 0,00, -0,01, 0,00, 1,02
13, -187500,02, -24851,38, -187500,02, -187500,02, -187500,02, -187500,02, -187500,02, -187500,02, 0,00, 0,00, 0,00, 0,00, 0,00, 0,00, 0,00, 0,00, -0,01, 0,00, 1,02
14, -187500,02, -25020,41, -187500,02, -187500,02, -187500,02, -187500,02, -187500,02, -187500,02, 0,00, 0,00, 0,00, 0,00, 0,00, 0,00, 0,00, 0,00, -0,01, 0,00, 1,02
15, -187500,02, -24628,92, -187500,02, -187500,02, -187500,02, -187500,02, -187500,02, -187500,02, 0,00, 0,00, 0,00, 0,00, 0,00, 0,00, 0,00, 0,00, -0,01, 0,00, 1,02
16, -187500,02, -24228,08, -187500,02, -187500,02, -187500,02, -187500,02, -187500,02, -187500,02, 0,00, 0,00, 0,00, 0,00, 0,00, 0,00, 0,00, 0,00, -0,01, 0,00, 1,02
17, -187500,02, -24404,24, -187500,02, -187500,02, -187500,02, -187500,02, -187500,02, -187500,02, 0,00, 0,00, 0,00, 0,00, 0,00, 0,00, 0,00, 0,00, -0,02, 0,00, 1,01
18, -187500,02, -24930,22, -187500,02, -187500,02, -187500,02, -187500,02, -187500,02, -187500,02, 0,00, 0,00, 0,00, 0,00, 0,00, 0,00, 0,00, 0,00, -0,02, 0,00, 1,01
19, -187500,02, -25082,90, -187500,02, -187500,02, -187500,02, -187500,02, -187500,02, -187500,02, 0,00, 0,00, 0,00, 0,00, 0,00, 0,00, 0,00, 0,00, -0,02, 0,00, 1,01
20, -187500,02, -24679,88, -187500,02, -187500,02, -187500,02, -187500,02, -187500,02, -187500,02, 0,00, 0,00, 0,00, 0,00, 0,00, 0,00, 0,00, 0,00, -0,02, 0,00, 1,01
21, -187500,02, -24330,25, -187500,02, -187500,02, -187500,02, -187500,02, -187500,02, -187500,02, 0,00, 0,00, 0,00, 0,00, 0,00, 0,00, 0,00, 0,00, -0,02, 0,00, 1,01
22, -187500,02, -24484,26, -187500,02, -187500,02, -187500,02, -187500,02, -187500,02, -187500,02, 0,00, 0,00, 0,00, 0,00, 0,00, 0,00, 0,00, 0,00, -0,02, 0,01, 1,01
23, -187500,02, -24994,48, -187500,02, -187500,02, -187500,02, -187500,02, -187500,02, -187500,02, 0,00, 0,00, 0,00, 0,00, 0,00, 0,00, 0,00, 0,00, -0,02, 0,01, 1,01
24, -187500,02, -25142,22, -187500,02, -187500,02, -187500,02, -187500,02, -187500,02, -187500,02, 0,00, 0,00, 0,00, 0,00, 0,00, 0,00, 0,00, 0,00, -0,02, 0,01, 1,01
25, -187500,02, -24723,58, -187500,02, -187500,02, -187500,02, -187500,02, -187500,02, -187500,02, 0,00, 0,00, 0,00, 0,00, 0,00, 0,00, 0,00, 0,00, -0,02, 0,01, 1,01
26, -187500,02, -24380,01, -187500,02, -187500,02, -187500,02, -187500,02, -187500,02, -187500,02, 0,00, 0,00, 0,00, 0,00, 0,00, 0,00, 0,00, 0,00, -0,02, 0,01, 1,01
27, -187500,02, -24538,30, -187500,02, -187500,02, -187500,02, -187500,02, -187500,02, -187500,02, 0,00, 0,00, 0,00, 0,00, 0,00, 0,00, 0,00, 0,00, -0,02, 0,00, 1,01
28, -187500,02, -25050,70, -187500,02, -187500,02, -187500,02, -187500,02, -187500,02, -187500,02, 0,00, 0,00, 0,00, 0,00, 0,00, 0,00, 0,00, 0,00, -0,02, 0,00, 1,01
29, -187500,02, -25205,10, -187500,02, -187500,02, -187500,02, -187500,02, -187500,02, -187500,02, 0,00, 0,00, 0,00, 0,00, 0,00, 0,00, 0,00, 0,00, -0,02, 0,00, 1,01
30, -187500,02, -24817,23, -187500,02, -187500,02, -187500,02, -187500,02, -187500,02, -187500,02, 0,00, 0,00, 0,00, 0,00, 0,00, 0,00, 0,00, 0,00, -0,02, 0,00, 1,01
31, -187500,02, -24416,64, -187500,02, -187500,02, -187500,02, -187500,02, -187500,02, -187500,02, 0,00, 0,00, 0,00, 0,00, 0,00, 0,00, 0,00, 0,00, -0,02, 0,00, 1,01
32, -187500,02, -24542,13, -187500,02, -187500,02, -187500,02, -187500,02, -187500,02, -187500,02, 0,00, 0,00, 0,00, 0,00, 0,00, 0,00, 0,00, 0,00, -0,02, 0,01, 1,01
33, -187500,02, -25042,60, -187500,02, -187500,02, -187500,02, -187500,02, -187500,02, -187500,02, 0,00, 0,00, 0,00, 0,00, 0,00, 0,00, 0,00, 0,00, -0,02, 0,01, 1,01
34, -187500,02, -25261,07, -187500,02, -187500,02, -187500,02, -187500,02, -187500,02, -187500,02, 0,00, 0,00, 0,00, 0,00, 0,00, 0,00, 0,00, 0,00, -0,02, 0,01, 1,01
35, -187500,02, -24868,95, -187500,02, -187500,02, -187500,02, -187500,02, -187500,02, -187500,02, 0,00, 0,00, 0,00, 0,00, 0,00, 0,00, 0,00, 0,00, -0,02, 0,01, 1,01
36, -187500,02, -24458,66, -187500,02, -187500,02, -187500,02, -187500,02, -187500,02, -187500,02, 0,00, 0,00, 0,00, 0,00, 0,00, 0,00, 0,00, 0,00, -0,02, 0,01, 1,01
37, -187500,02, -24583,65, -187500,02, -187500,02, -187500,02, -187500,02, -187500,02, -187500,02, 0,00, 0,00, 0,00, 0,00, 0,00, 0,00, 0,00, 0,00, -0,01, 0,01, 1,02
38, -187500,02, -25105,37, -187500,02, -187500,02, -187500,02, -187500,02, -187500,02, -187500,02, 0,00, 0,00, 0,00, 0,00, 0,00, 0,00, 0,00, 0,00, -0,01, 0,01, 1,02
39, -187500,02, -25283,60, -187500,02, -187500,02, -187500,02, -187500,02, -187500,02, -187500,02, 0,00, 0,00, 0,00, 0,00, 0,00, 0,00, 0,00, 0,00, -0,01, 0,01, 1,02
40, -187500,02, -24841,79, -187500,02, -187500,02, -187500,02, -187500,02, -187500,02, -187500,02, 0,00, 0,00, 0,00, 0,00, 0,00, 0,00, 0,00, 0,00, -0,01, 0,01, 1,02
41, -187500,02, -24407,08, -187500,02, -187500,02, -187500,02, -187500,02, -187500,02, -187500,02, 0,00, 0,00, 0,00, 0,00, 0,00, 0,00, 0,00, 0,00, -0,01, 0,01, 1,02
42, -187500,02, -24549,90, -187500,02, -187500,02, -187500,02, -187500,02, -187500,02, -187500,02, 0,00, 0,00, 0,00, 0,00, 0,00, 0,00, 0,00, 0,00, -0,01, 0,01, 1,02
43, -187500,02, -25098,50, -187500,02, -187500,02, -187500,02, -187500,02, -187500,02, -187500,02, 0,00, 0,00, 0,00, 0,00, 0,00, 0,00, 0,00, 0,00, -0,01, 0,00, 1,01
44, -187500,02, -25301,84, -187500,02, -187500,02, -187500,02, -187500,02, -187500,02, -187500,02, 0,00, 0,00, 0,00, 0,00, 0,00, 0,00, 0,00, 0,00, -0,01, 0,00, 1,01
45, -187500,02, -24915,38, -187500,02, -187500,02, -187500,02, -187500,02, -187500,02, -187500,02, 0,00, 0,00, 0,00, 0,00, 0,00, 0,00, 0,00, 0,00, -0,01, 0,00, 1,01
46, -187500,02, -24473,46, -187500,02, -187500,02, -187500,02, -187500,02, -187500,02, -187500,02, 0,00, 0,00, 0,00, 0,00, 0,00, 0,00, 0,00, 0,00, -0,01, 0,00, 1,01
47, -187500,02, -24588,35, -187500,02, -187500,02, -187500,02, -187500,02, -187500,02, -187500,02, 0,00, 0,00, 0,00, 0,00, 0,00, 0,00, 0,00, 0,00, -0,01, 0,00, 1,01
48, -187500,02, -25086,14, -187500,02, -187500,02, -187500,02, -187500,02, -187500,02, -187500,02, 0,00, 0,00, 0,00, 0,00, 0,00, 0,00, 0,00, 0,00, -0,01, 0,00, 1,01
49, -187500,02, -25296,63, -187500,02, -187500,02, -187500,02, -187500,02, -187500,02, -187500,02, 0,00, 0,00, 0,00, 0,00, 0,00, 0,00, 0,00, 0,00, -0,01, 0,00, 1,01
50, -187500,02, -24909,68, -187500,02, -187500,02, -187500,02, -187500,02, -187500,02, -187500,02, 0,00, 0,00, 0,00, 0,00, 0,00, 0,00, 0,00, 0,00, -0,01, 0,00, 1,01
51, -187500,02, -24468,54, -187500,02, -187500,02, -187500,02, -187500,02, -187500,02, -187500,02, 0,00, 0,00, 0,00, 0,00, 0,00, 0,00, 0,00, 0,00, -0,01, 0,00, 1,01
52, -187500,02, -24608,76, -187500,02, -187500,02, -187500,02, -187500,02, -187500,02, -187500,02, 0,00, 0,00, 0,00, 0,00, 0,00, 0,00, 0,00, 0,00, -0,01, 0,00, 1,01
53, -187500,02, -25096,96, -187500,02, -187500,02, -187500,02, -187500,02, -187500,02, -187500,02, 0,00, 0,00, 0,00, 0,00, 0,00, 0,00, 0,00, 0,00, -0,01, -0,00, 1,02
54, -187500,02, -25313,15, -187500,02, -187500,02, -187500,02, -187500,02, -187500,02, -187500,02, 0,00, 0,00, 0,00, 0,00, 0,00, 0,00, 0,00, 0,00, -0,01, -0,00, 1,02
55, -187500,02, -24949,62, -187500,02, -187500,02, -187500,02, -187500,02, -187500,02, -187500,02, 0,00, 0,00, 0,00, 0,00, 0,00, 0,00, 0,00, 0,00, -0,01, -0,00, 1,02
56, -187500,02, -24530,44, -187500,02, -187500,02, -187500,02, -187500,02, -187500,02, -187500,02, 0,00, 0,00, 0,00, 0,00, 0,00, 0,00, 0,00, 0,00, -0,01, -0,00, 1,02
57, -187500,02, -24647,67, -187500,02, -187500,02, -187500,02, -187500,02, -187500,02, -187500,02, 0,00, 0,00, 0,00, 0,00, 0,00, 0,00, 0,00, 0,00, -0,01, -0,00, 1,02
58, -187500,02, -25169,14, -187500,02, -187500,02, -187500,02, -187500,02, -187500,02, -187500,02, 0,00, 0,00, 0,00, 0,00, 0,00, 0,00, 0,00, 0,00, -0,01, 0,01, 1,01
59, -187500,02, -25363,24, -187500,02, -187500,02, -187500,02, -187500,02, -187500,02, -187500,02, 0,00, 0,00, 0,00, 0,00, 0,00, 0,00, 0,00, 0,00, -0,01, 0,01, 1,01
60, -187500,02, -24977,74, -187500,02, -187500,02, -187500,02, -187500,02, -187500,02, -187500,02, 0,00, 0,00, 0,00, 0,00, 0,00, 0,00, 0,00, 0,00, -0,01, 0,01, 1,01
61, -187500,02, -24528,07, -187500,02, -187500,02, -187500,02, -187500,02, -187500,02, -187500,02, 0,00, 0,00, 0,00, 0,00, 0,00, 0,00, 0,00, 0,00, -0,01, 0,01, 1,01
62, -187500,02, -24655,74, -187500,02, -187500,02, -187500,02, -187500,02, -187500,02, -187500,02, 0,00, 0,00, 0,00, 0,00, 0,00, 0,00, 0,00, 0,00, -0,01, 0,01, 1,01
63, -187500,02, -25168,58, -187500,02, -187500,02, -187500,02, -187500,02, -187500,02, -187500,02, 0,00, 0,00, 0,00, 0,00, 0,00, 0,00, 0,00, 0,00, -0,02, 0,00, 1,02
64, -187500,02, -25363,06, -187500,02, -187500,02, -187500,02, -187500,02, -187500,02, -187500,02, 0,00, 0,00, 0,00, 0,00, 0,00, 0,00, 0,00, 0,00, -0,02, 0,00, 1,02
65, -187500,02, -25019,22, -187500,02, -187500,02, -187500,02, -187500,02, -187500,02, -187500,02, 0,00, 0,00, 0,00, 0,00, 0,00, 0,00, 0,00, 0,00, -0,02, 0,00, 1,02
66, -187500,02, -24588,82, -187500,02, -187500,02, -187500,02, -187500,02, -187500,02, -187500,02, 0,00, 0,00, 0,00, 0,00, 0,00, 0,00, 0,00, 0,00, -0,02, 0,00, 1,02
67, -187500,02, -24713,90, -187500,02, -187500,02, -187500,02, -187500,02, -187500,02, -187500,02, 0,00, 0,00, 0,00, 0,00, 0,00, 0,00, 0,00, 0,00, -0,02, 0,00, 1,02
68, -187500,02, -25249,22, -187500,02, -187500,02, -187500,02, -187500,02, -187500,02, -187500,02, 0,00, 0,00, 0,00, 0,00, 0,00, 0,00, 0,00, 0,00, -0,01, 0,00, 1,01
69, -187500,02, -25430,67, -187500,02, -187500,02, -187500,02, -187500,02, -187500,02, -187500,02, 0,00, 0,00, 0,00, 0,00, 0,00, 0,00, 0,00, 0,00, -0,01, 0,00, 1,01
70, -187500,02, -25053,38, -187500,02, -187500,02, -187500,02, -187500,02, -187500,02, -187500,02, 0,00, 0,00, 0,00, 0,00, 0,00, 0,00, 0,00, 0,00, -0,01, 0,00, 1,01
71, -187500,02, -24625,16, -187500,02, -187500,02, -187500,02, -187500,02, -187500,02, -187500,02, 0,00, 0,00, 0,00, 0,00, 0,00, 0,00, 0,00, 0,00, -0,01, 0,00, 1,01
72, -187500,02, -24717,99, -187500,02, -187500,02, -187500,02, -187500,02, -187500,02, -187500,02, 0,00, 0,00, 0,00, 0,00, 0,00, 0,00, 0,00, 0,00, -0,01, 0,00, 1,01
73, -187500,02, -25244,19, -187500,02, -187500,02, -187500,02, -187500,02, -187500,02, -187500,02, 0,00, 0,00, 0,00, 0,00, 0,00, 0,00, 0,00, 0,00, -0,01, 0,00, 1,01
74, -187500,02, -25478,46, -187500,02, -187500,02, -187500,02, -187500,02, -187500,02, -187500,02, 0,00, 0,00, 0,00, 0,00, 0,00, 0,00, 0,00, 0,00, -0,01, 0,00, 1,01
75, -187500,02, -25104,18, -187500,02, -187500,02, -187500,02, -187500,02, -187500,02, -187500,02, 0,00, 0,00, 0,00, 0,00, 0,00, 0,00, 0,00, 0,00, -0,01, 0,00, 1,01
76, -187500,02, -24651,54, -187500,02, -187500,02, -187500,02, -187500,02, -187500,02, -187500,02, 0,00, 0,00, 0,00, 0,00, 0,00, 0,00, 0,00, 0,00, -0,01, 0,00, 1,01
77, -187500,02, -24770,61, -187500,02, -187500,02, -187500,02, -187500,02, -187500,02, -187500,02, 0,00, 0,00, 0,00, 0,00, 0,00, 0,00, 0,00, 0,00, -0,01, 0,00, 1,01
78, -187500,02, -25285,95, -187500,02, -187500,02, -187500,02, -187500,02, -187500,02, -187500,02, 0,00, 0,00, 0,00, 0,00, 0,00, 0,00, 0,00, 0,00, -0,02, 0,00, 1,02
79, -187500,02, -25494,71, -187500,02, -187500,02, -187500,02, -187500,02, -187500,02, -187500,02, 0,00, 0,00, 0,00, 0,00, 0,00, 0,00, 0,00, 0,00, -0,02, 0,00, 1,02
80, -187500,02, -25118,17, -187500,02, -187500,02, -187500,02, -187500,02, -187500,02, -187500,02, 0,00, 0,00, 0,00, 0,00, 0,00, 0,00, 0,00, 0,00, -0,02, 0,00, 1,02
81, -187500,02, -24702,90, -187500,02, -187500,02, -187500,02, -187500,02, -187500,02, -187500,02, 0,00, 0,00, 0,00, 0,00, 0,00, 0,00, 0,00, 0,00, -0,02, 0,00, 1,02
82, -187500,02, -24798,86, -187500,02, -187500,02, -187500,02, -187500,02, -187500,02, -187500,02, 0,00, 0,00, 0,00, 0,00, 0,00, 0,00, 0,00, 0,00, -0,02, 0,00, 1,02
83, -187500,02, -25306,17, -187500,02, -187500,02, -187500,02, -187500,02, -187500,02, -187500,02, 0,00, 0,00, 0,00, 0,00, 0,00, 0,00, 0,00, 0,00, -0,02, 0,00, 1,02
84, -187500,02, -25539,42, -187500,02, -187500,02, -187500,02, -187500,02, -187500,02, -187500,02, 0,00, 0,00, 0,00, 0,00, 0,00, 0,00, 0,00, 0,00, -0,02, 0,00, 1,02
85, -187500,02, -25152,60, -187500,02, -187500,02, -187500,02, -187500,02, -187500,02, -187500,02, 0,00, 0,00, 0,00, 0,00, 0,00, 0,00, 0,00, 0,00, -0,02, 0,00, 1,02
86, -187500,02, -24713,72, -187500,02, -187500,02, -187500,02, -187500,02, -187500,02, -187500,02, 0,00, 0,00, 0,00, 0,00, 0,00, 0,00, 0,00, 0,00, -0,02, 0,00, 1,02
87, -187500,02, -24836,79, -187500,02, -187500,02, -187500,02, -187500,02, -187500,02, -187500,02, 0,00, 0,00, 0,00, 0,00, 0,00, 0,00, 0,00, 0,00, -0,02, 0,00, 1,02
88, -187500,02, -25340,60, -187500,02, -187500,02, -187500,02, -187500,02, -187500,02, -187500,02, 0,00, 0,00, 0,00, 0,00, 0,00, 0,00, 0,00, 0,00, -0,01, -0,00, 1,01
89, -187500,02, -25587,34, -187500,02, -187500,02, -187500,02, -187500,02, -187500,02, -187500,02, 0,00, 0,00, 0,00, 0,00, 0,00, 0,00, 0,00, 0,00, -0,01, -0,00, 1,01
90, -187500,02, -25235,99, -187500,02, -187500,02, -187500,02, -187500,02, -187500,02, -187500,02, 0,00, 0,00, 0,00, 0,00, 0,00, 0,00, 0,00, 0,00, -0,01, -0,00, 1,01
91, -187500,02, -24769,91, -187500,02, -187500,02, -187500,02, -187500,02, -187500,02, -187500,02, 0,00, 0,00, 0,00, 0,00, 0,00, 0,00, 0,00, 0,00, -0,01, -0,00, 1,01
92, -187500,02, -24848,79, -187500,02, -187500,02, -187500,02, -187500,02, -187500,02, -187500,02, 0,00, 0,00, 0,00, 0,00, 0,00, 0,00, 0,00, 0,00, -0,01, -0,00, 1,01
93, -187500,02, -25377,48, -187500,02, -187500,02, -187500,02, -187500,02, -187500,02, -187500,02, 0,00, 0,00, 0,00, 0,00, 0,00, 0,00, 0,00, 0,00, -0,02, 0,00, 1,01
94, -187500,02, -25663,91, -187500,02, -187500,02, -187500,02, -187500,02, -187500,02, -187500,02, 0,00, 0,00, 0,00, 0,00, 0,00, 0,00, 0,00, 0,00, -0,02, 0,00, 1,01
95, -187500,02, -25315,38, -187500,02, -187500,02, -187500,02, -187500,02, -187500,02, -187500,02, 0,00, 0,00, 0,00, 0,00, 0,00, 0,00, 0,00, 0,00, -0,02, 0,00, 1,01
96, -187500,02, -24844,37, -187500,02, -187500,02, -187500,02, -187500,02, -187500,02, -187500,02, 0,00, 0,00, 0,00, 0,00, 0,00, 0,00, 0,00, 0,00, -0,02, 0,00, 1,01
97, -187500,02, -24939,00, -187500,02, -187500,02, -187500,02, -187500,02, -187500,02, -187500,02, 0,00, 0,00, 0,00, 0,00, 0,00, 0,00, 0,00, 0,00, -0,02, 0,00, 1,01
98, -187500,02, -25449,16, -187500,02, -187500,02, -187500,02, -187500,02, -187500,02, -187500,02, 0,00, 0,00, 0,00, 0,00, 0,00, 0,00, 0,00, 0,00, -0,01, 0,00, 1,01
99, -187500,02, -25711,72, -187500,02, -187500,02, -187500,02, -187500,02, -187500,02, -187500,02, 0,00, 0,00, 0,00, 0,00, 0,00, 0,00, 0,00, 0,00, -0,01, 0,00, 1,01
100, -187500,02, -25384,34, -187500,02, -187500,02, -187500,02, -187500,02, -187500,02, -187500,02, 0,00, 0,00, 0,00, 0,00, 0,00, 0,00, 0,00, 0,00, -0,01, 0,00, 1,01
101, -187500,02, -24919,47, -187500,02, -187500,02, -187500,02, -187500,02, -187500,02, -187500,02, 0,00, 0,00, 0,00, 0,00, 0,00, 0,00, 0,00, 0,00, -0,01, 0,00, 1,01
102, -187500,02, -24971,81, -187500,02, -187500,02, -187500,02, -187500,02, -187500,02, -187500,02, 0,00, 0,00, 0,00, 0,00, 0,00, 0,00, 0,00, 0,00, -0,01, 0,00, 1,01
103, -187500,02, -25438,52, -187500,02, -187500,02, -187500,02, -187500,02, -187500,02, -187500,02, 0,00, 0,00, 0,00, 0,00, 0,00, 0,00, 0,00, 0,00, -0,01, 0,00, 1,01
104, -187500,02, -25695,12, -187500,02, -187500,02, -187500,02, -187500,02, -187500,02, -187500,02, 0,00, 0,00, 0,00, 0,00, 0,00, 0,00, 0,00, 0,00, -0,01, 0,00, 1,01
105, -187500,02, -25385,32, -187500,02, -187500,02, -187500,02, -187500,02, -187500,02, -187500,02, 0,00, 0,00, 0,00, 0,00, 0,00, 0,00, 0,00, 0,00, -0,01, 0,00, 1,01
106, -187500,02, -24956,13, -187500,02, -187500,02, -187500,02, -187500,02, -187500,02, -187500,02, 0,00, 0,00, 0,00, 0,00, 0,00, 0,00, 0,00, 0,00, -0,01, 0,00, 1,01
107, -187500,02, -24989,41, -187500,02, -187500,02, -187500,02, -187500,02, -187500,02, -187500,02, 0,00, 0,00, 0,00, 0,00, 0,00, 0,00, 0,00, 0,00, -0,01, 0,00, 1,01
108, -187500,02, -25511,77, -187500,02, -187500,02, -187500,02, -187500,02, -187500,02, -187500,02, 0,00, 0,00, 0,00, 0,00, 0,00, 0,00, 0,00, 0,00, -0,01, 0,01, 1,02
109, -187500,02, -25771,16, -187500,02, -187500,02, -187500,02, -187500,02, -187500,02, -187500,02, 0,00, 0,00, 0,00, 0,00, 0,00, 0,00, 0,00, 0,00, -0,01, 0,01, 1,02
110, -187500,02, -25440,78, -187500,02, -187500,02, -187500,02, -187500,02, -187500,02, -187500,02, 0,00, 0,00, 0,00, 0,00, 0,00, 0,00, 0,00, 0,00, -0,01, 0,01, 1,02
111, -187500,02, -24971,28, -187500,02, -187500,02, -187500,02, -187500,02, -187500,02, -187500,02, 0,00, 0,00, 0,00, 0,00, 0,00, 0,00, 0,00, 0,00, -0,01, 0,01, 1,02
112, -187500,02, -25011,40, -187500,02, -187500,02, -187500,02, -187500,02, -187500,02, -187500,02, 0,00, 0,00, 0,00, 0,00, 0,00, 0,00, 0,00, 0,00, -0,01, 0,01, 1,02
113, -187500,02, -25521,13, -187500,02, -187500,02, -187500,02, -187500,02, -187500,02, -187500,02, 0,00, 0,00, 0,00, 0,00, 0,00, 0,00, 0,00, 0,00, -0,02, 0,00, 1,01
114, -187500,02, -25795,34, -187500,02, -187500,02, -187500,02, -187500,02, -187500,02, -187500,02, 0,00, 0,00, 0,00, 0,00, 0,00, 0,00, 0,00, 0,00, -0,02, 0,00, 1,01
115, -187500,02, -25472,96, -187500,02, -187500,02, -187500,02, -187500,02, -187500,02, -187500,02, 0,00, 0,00, 0,00, 0,00, 0,00, 0,00, 0,00, 0,00, -0,02, 0,00, 1,01
116, -187500,02, -24955,61, -187500,02, -187500,02, -187500,02, -187500,02, -187500,02, -187500,02, 0,00, 0,00, 0,00, 0,00, 0,00, 0,00, 0,00, 0,00, -0,02, 0,00, 1,01
117, -187500,02, -24945,84, -187500,02, -187500,02, -187500,02, -187500,02, -187500,02, -187500,02, 0,00, 0,00, 0,00, 0,00, 0,00, 0,00, 0,00, 0,00, -0,02, 0,00, 1,01
118, -187500,02, -25582,40, -187500,02, -187500,02, -187500,02, -187500,02, -187500,02, -187500,02, 0,00, 0,00, 0,00, 0,00, 0,00, 0,00, 0,00, 0,00, -0,02, 0,00, 1,01
119, -187500,02, -25886,20, -187500,02, -187500,02, -187500,02, -187500,02, -187500,02, -187500,02, 0,00, 0,00, 0,00, 0,00, 0,00, 0,00, 0,00, 0,00, -0,02, 0,00, 1,01
120, -187500,02, -25566,44, -187500,02, -187500,02, -187500,02, -187500,02, -187500,02, -187500,02, 0,00, 0,00, 0,00, 0,00, 0,00, 0,00, 0,00, 0,00, -0,02, 0,00, 1,01
121, -187500,02, -25098,19, -187500,02, -187500,02, -187500,02, -187500,02, -187500,02, -187500,02, 0,00, 0,00, 0,00, 0,00, 0,00, 0,00, 0,00, 0,00, -0,02, 0,00, 1,01
122, -187500,02, -25102,10, -187500,02, -187500,02, -187500,02, -187500,02, -187500,02, -187500,02, 0,00, 0,00, 0,00, 0,00, 0,00, 0,00, 0,00, 0,00, -0,02, 0,00, 1,01
123, -187500,02, -25530,81, -187500,02, -187500,02, -187500,02, -187500,02, -187500,02, -187500,02, 0,00, 0,00, 0,00, 0,00, 0,00, 0,00, 0,00, 0,00, -0,02, 0,01, 1,01
124, -187500,02, -25809,65, -187500,02, -187500,02, -187500,02, -187500,02, -187500,02, -187500,02, 0,00, 0,00, 0,00, 0,00, 0,00, 0,00, 0,00, 0,00, -0,02, 0,01, 1,01
125, -187500,02, -25472,43, -187500,02, -187500,02, -187500,02, -187500,02, -187500,02, -187500,02, 0,00, 0,00, 0,00, 0,00, 0,00, 0,00, 0,00, 0,00, -0,02, 0,01, 1,01
126, -187500,02, -25005,23, -187500,02, -187500,02, -187500,02, -187500,02, -187500,02, -187500,02, 0,00, 0,00, 0,00, 0,00, 0,00, 0,00, 0,00, 0,00, -0,02, 0,01, 1,01
127, -187500,02, -25155,21, -187500,02, -187500,02, -187500,02, -187500,02, -187500,02, -187500,02, 0,00, 0,00, 0,00, 0,00, 0,00, 0,00, 0,00, 0,00, -0,02, 0,01, 1,01
128, -187500,02, -25585,59, -187500,02, -187500,02, -187500,02, -187500,02, -187500,02, -187500,02, 0,00, 0,00, 0,00, 0,00, 0,00, 0,00, 0,00, 0,00, -0,02, 0,00, 1,01
129, -187500,02, -25823,33, -187500,02, -187500,02, -187500,02, -187500,02, -187500,02, -187500,02, 0,00, 0,00, 0,00, 0,00, 0,00, 0,00, 0,00, 0,00, -0,02, 0,00, 1,01
130, -187500,02, -25464,98, -187500,02, -187500,02, -187500,02, -187500,02, -187500,02, -187500,02, 0,00, 0,00, 0,00, 0,00, 0,00, 0,00, 0,00, 0,00, -0,02, 0,00, 1,01
131, -187500,02, -24865,73, -187500,02, -187500,02, -187500,02, -187500,02, -187500,02, -187500,02, 0,00, 0,00, 0,00, 0,00, 0,00, 0,00, 0,00, 0,00, -0,02, 0,00, 1,01
132, -187500,02, -24869,73, -187500,02, -187500,02, -187500,02, -187500,02, -187500,02, -187500,02, 0,00, 0,00, 0,00, 0,00, 0,00, 0,00, 0,00, 0,00, -0,02, 0,00, 1,01
133, -187500,02, -25387,02, -187500,02, -187500,02, -187500,02, -187500,02, -187500,02, -187500,02, 0,00, 0,00, 0,00, 0,00, 0,00, 0,00, 0,00, 0,00, -0,02, 0,00, 1,01
134, -187500,02, -25604,23, -187500,02, -187500,02, -187500,02, -187500,02, -187500,02, -187500,02, 0,00, 0,00, 0,00, 0,00, 0,00, 0,00, 0,00, 0,00, -0,02, 0,00, 1,01
135, -187500,02, -25639,39, -187500,02, -187500,02, -187500,02, -187500,02, -187500,02, -187500,02, 0,00, 0,00, 0,00, 0,00, 0,00, 0,00, 0,00, 0,00, -0,02, 0,00, 1,01
136, -187500,02, -25048,73, -187500,02, -187500,02, -187500,02, -187500,02, -187500,02, -187500,02, 0,00, 0,00, 0,00, 0,00, 0,00, 0,00, 0,00, 0,00, -0,02, 0,00, 1,01
137, -187500,02, -25014,48, -187500,02, -187500,02, -187500,02, -187500,02, -187500,02, -187500,02, 0,00, 0,00, 0,00, 0,00, 0,00, 0,00, 0,00, 0,00, -0,02, 0,00, 1,01
138, -187500,02, -25363,62, -187500,02, -187500,02, -187500,02, -187500,02, -187500,02, -187500,02, 0,00, 0,00, 0,00, 0,00, 0,00, 0,00, 0,00, 0,00, -0,02, 0,01, 1,00
139, -187500,02, -25188,96, -187500,02, -187500,02, -187500,02, -187500,02, -187500,02, -187500,02, 0,00, 0,00, 0,00, 0,00, 0,00, 0,00, 0,00, 0,00, -0,02, 0,01, 1,00
140, -187500,02, -24830,20, -187500,02, -187500,02, -187500,02, -187500,02, -187500,02, -187500,02, 0,00, 0,00, 0,00, 0,00, 0,00, 0,00, 0,00, 0,00, -0,02, 0,01, 1,00
141, -187500,02, -24652,90, -187500,02, -187500,02, -187500,02, -187500,02, -187500,02, -187500,02, 0,00, 0,00, 0,00, 0,00, 0,00, 0,00, 0,00, 0,00, -0,02, 0,01, 1,00
142, -187500,02, -24170,55, -187500,02, -187500,02, -187500,02, -187500,02, -187500,02, -187500,02, 0,00, 0,00, 0,00, 0,00, 0,00, 0,00, 0,00, 0,00, -0,02, 0,01, 1,00
143, -187500,02, -24362,60, -187500,02, -187500,02, -187500,02, -187500,02, -187500,02, -187500,02, 0,00, 0,00, 0,00, 0,00, 0,00, 0,00, 0,00, 0,00, -0,02, 0,00, 1,00
144, -187500,02, -24668,77, -187500,02, -187500,02, -187500,02, -187500,02, -187500,02, -187500,02, 0,00, 0,00, 0,00, 0,00, 0,00, 0,00, 0,00, 0,00, -0,02, 0,00, 1,00
145, -187500,02, -24157,34, -187500,02, -187500,02, -187500,02, -187500,02, -187500,02, -187500,02, 0,00, 0,00, 0,00, 0,00, 0,00, 0,00, 0,00, 0,00, -0,02, 0,00, 1,00
146, -187500,02, -23342,19, -187500,02, -187500,02, -187500,02, -187500,02, -187500,02, -187500,02, 0,00, 0,00, 0,00, 0,00, 0,00, 0,00, 0,00, 0,00, -0,02, 0,00, 1,00
147, -187500,02, -22766,03, -187500,02, -187500,02, -187500,02, -187500,02, -187500,02, -187500,02, 0,00, 0,00, 0,00, 0,00, 0,00, 0,00, 0,00, 0,00, -0,02, 0,00, 1,00
148, -187500,02, -23128,11, -187500,02, -187500,02, -187500,02, -187500,02, -187500,02, -187500,02, 0,00, 0,00, 0,00, 0,00, 0,00, 0,00, 0,00, 0,00, -0,02, 0,00, 1,01
149, -187500,02, -23424,22, -187500,02, -187500,02, -187500,02, -187500,02, -187500,02, -187500,02, 0,00, 0,00, 0,00, 0,00, 0,00, 0,00, 0,00, 0,00, -0,02, 0,00, 1,01
150, -187500,02, -22710,58, -187500,02, -187500,02, -187500,02, -187500,02, -187500,02, -187500,02, 0,00, 0,00, 0,00, 0,00, 0,00, 0,00, 0,00, 0,00, -0,02, 0,00, 1,01
151, -187500,02, -21727,33, -187500,02, -187500,02, -187500,02, -187500,02, -187500,02, -187500,02, 0,00, 0,00, 0,00, 0,00, 0,00, 0,00, 0,00, 0,00, -0,02, 0,00, 1,01
152, -187500,02, -21734,52, -187500,02, -187500,02, -187500,02, -187500,02, -187500,02, -187500,02, 0,00, 0,00, 0,00, 0,00, 0,00, 0,00, 0,00, 0,00, -0,02, 0,00, 1,01
153, -187500,02, -22257,55, -187500,02, -187500,02, -187500,02, -187500,02, -187500,02, -187500,02, 0,00, 0,00, 0,00, 0,00, 0,00, 0,00, 0,00, 0,00, -0,02, 0,00, 1,01
154, -187500,02, -22173,13, -187500,02, -187500,02, -187500,02, -187500,02, -187500,02, -187500,02, 0,00, 0,00, 0,00, 0,00, 0,00, 0,00, 0,00, 0,00, -0,02, 0,00, 1,01
155, -187500,02, -21722,25, -187500,02, -187500,02, -187500,02, -187500,02, -187500,02, -187500,02, 0,00, 0,00, 0,00, 0,00, 0,00, 0,00, 0,00, 0,00, -0,02, 0,00, 1,01
156, -187500,02, -21057,22, -187500,02, -187500,02, -187500,02, -187500,02, -187500,02, -187500,02, 0,00, 0,00, 0,00, 0,00, 0,00, 0,00, 0,00, 0,00, -0,02, 0,00, 1,01
157, -187500,02, -20792,64, -187500,02, -187500,02, -187500,02, -187500,02, -187500,02, -187500,02, 0,00, 0,00, 0,00, 0,00, 0,00, 0,00, 0,00, 0,00, -0,02, 0,00, 1,01
158, -187500,02, -20938,87, -187500,02, -187500,02, -187500,02, -187500,02, -187500,02, -187500,02, 0,00, 0,00, 0,00, 0,00, 0,00, 0,00, 0,00, 0,00, -0,01, 0,00, 1,01
159, -187500,02, -21175,30, -187500,02, -187500,02, -187500,02, -187500,02, -187500,02, -187500,02, 0,00, 0,00, 0,00, 0,00, 0,00, 0,00, 0,00, 0,00, -0,01, 0,00, 1,01
160, -187500,02, -20504,01, -187500,02, -187500,02, -187500,02, -187500,02, -187500,02, -187500,02, 0,00, 0,00, 0,00, 0,00, 0,00, 0,00, 0,00, 0,00, -0,01, 0,00, 1,01
161, -187500,02, -19782,46, -187500,02, -187500,02, -187500,02, -187500,02, -187500,02, -187500,02, 0,00, 0,00, 0,00, 0,00, 0,00, 0,00, 0,00, 0,00, -0,01, 0,00, 1,01
162, -187500,02, -19884,94, -187500,02, -187500,02, -187500,02, -187500,02, -187500,02, -187500,02, 0,00, 0,00, 0,00, 0,00, 0,00, 0,00, 0,00, 0,00, -0,01, 0,00, 1,01
163, -187500,02, -20403,07, -187500,02, -187500,02, -187500,02, -187500,02, -187500,02, -187500,02, 0,00, 0,00, 0,00, 0,00, 0,00, 0,00, 0,00, 0,00, -0,01, 0,00, 1,01
164, -187500,02, -20085,43, -187500,02, -187500,02, -187500,02, -187500,02, -187500,02, -187500,02, 0,00, 0,00, 0,00, 0,00, 0,00, 0,00, 0,00, 0,00, -0,01, 0,00, 1,01
165, -187500,02, -19850,29, -187500,02, -187500,02, -187500,02, -187500,02, -187500,02, -187500,02, 0,00, 0,00, 0,00, 0,00, 0,00, 0,00, 0,00, 0,00, -0,01, 0,00, 1,01
166, -187500,02, -19109,00, -187500,02, -187500,02, -187500,02, -187500,02, -187500,02, -187500,02, 0,00, 0,00, 0,00, 0,00, 0,00, 0,00, 0,00, 0,00, -0,01, 0,00, 1,01
167, -187500,02, -18971,94, -187500,02, -187500,02, -187500,02, -187500,02, -187500,02, -187500,02, 0,00, 0,00, 0,00, 0,00, 0,00, 0,00, 0,00, 0,00, -0,01, 0,00, 1,01
168, -187500,02, -19291,83, -187500,02, -187500,02, -187500,02, -187500,02, -187500,02, -187500,02, 0,00, 0,00, 0,00, 0,00, 0,00, 0,00, 0,00, 0,00, -0,01, 0,00, 1,01
169, -187500,02, -19742,07, -187500,02, -187500,02, -187500,02, -187500,02, -187500,02, -187500,02, 0,00, 0,00, 0,00, 0,00, 0,00, 0,00, 0,00, 0,00, -0,01, 0,00, 1,01
170, -187500,02, -18977,99, -187500,02, -187500,02, -187500,02, -187500,02, -187500,02, -187500,02, 0,00, 0,00, 0,00, 0,00, 0,00, 0,00, 0,00, 0,00, -0,01, 0,00, 1,01
171, -187500,02, -18279,19, -187500,02, -187500,02, -187500,02, -187500,02, -187500,02, -187500,02, 0,00, 0,00, 0,00, 0,00, 0,00, 0,00, 0,00, 0,00, -0,01, 0,00, 1,01
172, -187500,02, -18241,79, -187500,02, -187500,02, -187500,02, -187500,02, -187500,02, -187500,02, 0,00, 0,00, 0,00, 0,00, 0,00, 0,00, 0,00, 0,00, -0,01, 0,00, 1,01
173, -187500,02, -18265,64, -187500,02, -187500,02, -187500,02, -187500,02, -187500,02, -187500,02, 0,00, 0,00, 0,00, 0,00, 0,00, 0,00, 0,00, 0,00, -0,01, 0,01, 1,01
